Temperature (K)	Pressure (MPa)	Density (l, kg/m3)	Volume (l, m3/kg)	Internal Energy (l, kJ/kg)	Enthalpy (l, kJ/kg)	Entropy (l, J/g*K)	Cv (l, J/g*K)	Cp (l, J/g*K)	Sound Spd. (l, m/s)	Joule-Thomson (l, K/MPa)	Viscosity (l, uPa*s)	Therm. Cond. (l, W/m*K)	Surf. Tension (l, N/m)	Density (v, kg/m3)	Volume (v, m3/kg)	Internal Energy (v, kJ/kg)	Enthalpy (v, kJ/kg)	Entropy (v, J/g*K)	Cv (v, J/g*K)	Cp (v, J/g*K)	Sound Spd. (v, m/s)	Joule-Thomson (v, K/MPa)	Viscosity (v, uPa*s)	Therm. Cond. (v, W/m*K)
248.18	0.10655	1373.4	0.00072814	167.15	167.23	0.87476	0.84941	1.2828	736.83	-0.25717	372.76	0.10339	0.015030	5.5133	0.18138	364.14	383.47	1.7461	0.69132	0.79802	145.79	45.285	9.8193	0.0094047
248.45	0.10785	1372.5	0.00072857	167.49	167.57	0.87614	0.84972	1.2833	735.58	-0.25642	371.33	0.10326	0.014990	5.5767	0.17932	364.30	383.64	1.7458	0.69203	0.79896	145.82	45.113	9.8290	0.0094269
248.72	0.10915	1371.7	0.00072900	167.84	167.91	0.87752	0.85002	1.2838	734.35	-0.25568	369.93	0.10314	0.014951	5.6401	0.17730	364.45	383.80	1.7455	0.69274	0.79989	145.85	44.943	9.8387	0.0094489
248.98	0.11045	1370.9	0.00072942	168.17	168.25	0.87887	0.85032	1.2844	733.13	-0.25494	368.55	0.10301	0.014912	5.7035	0.17533	364.60	383.97	1.7453	0.69344	0.80082	145.88	44.776	9.8482	0.0094706
249.24	0.11175	1370.2	0.00072984	168.51	168.59	0.88022	0.85062	1.2849	731.91	-0.25421	367.18	0.10289	0.014873	5.7668	0.17341	364.75	384.13	1.7450	0.69414	0.80174	145.90	44.611	9.8577	0.0094922
249.50	0.11305	1369.4	0.00073026	168.84	168.92	0.88155	0.85091	1.2854	730.71	-0.25347	365.84	0.10277	0.014835	5.8301	0.17152	364.90	384.29	1.7447	0.69483	0.80265	145.93	44.449	9.8671	0.0095136
249.75	0.11435	1368.6	0.00073067	169.17	169.25	0.88286	0.85121	1.2860	729.53	-0.25274	364.52	0.10265	0.014797	5.8934	0.16968	365.04	384.45	1.7445	0.69551	0.80356	145.96	44.289	9.8764	0.0095348
250.01	0.11566	1367.8	0.00073108	169.49	169.58	0.88417	0.85150	1.2865	728.35	-0.25202	363.21	0.10253	0.014760	5.9566	0.16788	365.19	384.61	1.7443	0.69619	0.80446	145.98	44.132	9.8856	0.0095558
250.26	0.11696	1367.1	0.00073149	169.82	169.90	0.88546	0.85178	1.2870	727.18	-0.25130	361.92	0.10241	0.014723	6.0199	0.16612	365.33	384.76	1.7440	0.69686	0.80535	146.01	43.977	9.8947	0.0095766
250.51	0.11826	1366.3	0.00073190	170.14	170.22	0.88674	0.85207	1.2875	726.02	-0.25058	360.65	0.10230	0.014686	6.0830	0.16439	365.48	384.92	1.7438	0.69753	0.80624	146.03	43.824	9.9038	0.0095973
250.76	0.11956	1365.6	0.00073230	170.46	170.54	0.88801	0.85235	1.2880	724.87	-0.24986	359.40	0.10218	0.014649	6.1462	0.16270	365.62	385.07	1.7435	0.69819	0.80713	146.06	43.674	9.9128	0.0096178
251.00	0.12086	1364.8	0.00073270	170.77	170.86	0.88927	0.85263	1.2885	723.74	-0.24915	358.16	0.10207	0.014613	6.2093	0.16105	365.76	385.22	1.7433	0.69885	0.80801	146.08	43.526	9.9216	0.0096381
251.25	0.12216	1364.1	0.00073310	171.08	171.17	0.89051	0.85291	1.2890	722.61	-0.24844	356.94	0.10195	0.014578	6.2724	0.15943	365.90	385.37	1.7431	0.69950	0.80888	146.11	43.379	9.9305	0.0096583
251.49	0.12346	1363.3	0.00073349	171.39	171.48	0.89175	0.85319	1.2895	721.49	-0.24773	355.74	0.10184	0.014542	6.3355	0.15784	366.04	385.52	1.7428	0.70015	0.80975	146.13	43.235	9.9392	0.0096782
251.73	0.12476	1362.6	0.00073388	171.70	171.79	0.89297	0.85347	1.2900	720.38	-0.24703	354.55	0.10173	0.014507	6.3985	0.15629	366.17	385.67	1.7426	0.70079	0.81061	146.15	43.093	9.9479	0.0096981
251.96	0.12606	1361.9	0.00073427	172.01	172.10	0.89418	0.85374	1.2905	719.29	-0.24633	353.38	0.10162	0.014472	6.4616	0.15476	366.31	385.82	1.7424	0.70143	0.81147	146.17	42.952	9.9565	0.0097178
252.20	0.12736	1361.2	0.00073466	172.31	172.40	0.89539	0.85401	1.2910	718.20	-0.24563	352.22	0.10151	0.014438	6.5245	0.15327	366.44	385.96	1.7422	0.70207	0.81232	146.20	42.814	9.9650	0.0097373
252.43	0.12866	1360.5	0.00073504	172.61	172.71	0.89658	0.85428	1.2915	717.11	-0.24493	351.08	0.10140	0.014403	6.5875	0.15180	366.58	386.11	1.7420	0.70270	0.81317	146.22	42.677	9.9735	0.0097567
252.66	0.12996	1359.8	0.00073543	172.91	173.01	0.89776	0.85455	1.2920	716.04	-0.24424	349.95	0.10130	0.014369	6.6504	0.15037	366.71	386.25	1.7418	0.70332	0.81401	146.24	42.542	9.9818	0.0097759
252.89	0.13126	1359.1	0.00073581	173.21	173.30	0.89893	0.85481	1.2925	714.98	-0.24355	348.83	0.10119	0.014336	6.7134	0.14896	366.84	386.39	1.7416	0.70394	0.81485	146.26	42.409	9.9902	0.0097950
253.12	0.13256	1358.4	0.00073618	173.50	173.60	0.90009	0.85507	1.2930	713.92	-0.24286	347.73	0.10108	0.014302	6.7763	0.14757	366.97	386.54	1.7413	0.70456	0.81569	146.28	42.278	9.9984	0.0098140
253.35	0.13387	1357.7	0.00073656	173.79	173.89	0.90125	0.85534	1.2935	712.88	-0.24218	346.64	0.10098	0.014269	6.8391	0.14622	367.10	386.68	1.7411	0.70517	0.81652	146.30	42.148	10.007	0.0098328
253.57	0.13517	1357.0	0.00073693	174.08	174.18	0.90239	0.85560	1.2939	711.84	-0.24150	345.56	0.10087	0.014236	6.9020	0.14489	367.23	386.81	1.7409	0.70578	0.81734	146.32	42.020	10.015	0.0098514
253.79	0.13647	1356.3	0.00073730	174.37	174.47	0.90352	0.85585	1.2944	710.81	-0.24082	344.50	0.10077	0.014204	6.9648	0.14358	367.36	386.95	1.7407	0.70638	0.81816	146.33	41.894	10.023	0.0098700
254.01	0.13777	1355.6	0.00073767	174.65	174.76	0.90465	0.85611	1.2949	709.78	-0.24014	343.45	0.10067	0.014171	7.0276	0.14230	367.48	387.09	1.7406	0.70698	0.81898	146.35	41.769	10.031	0.0098884
254.23	0.13907	1354.9	0.00073804	174.94	175.04	0.90577	0.85637	1.2954	708.77	-0.23946	342.41	0.10057	0.014139	7.0904	0.14104	367.61	387.22	1.7404	0.70758	0.81979	146.37	41.646	10.039	0.0099067
254.45	0.14037	1354.3	0.00073840	175.22	175.32	0.90687	0.85662	1.2958	707.76	-0.23879	341.38	0.10047	0.014107	7.1531	0.13980	367.73	387.36	1.7402	0.70817	0.82060	146.39	41.524	10.047	0.0099248
254.67	0.14167	1353.6	0.00073877	175.50	175.60	0.90797	0.85687	1.2963	706.76	-0.23812	340.36	0.10037	0.014076	7.2159	0.13858	367.86	387.49	1.7400	0.70876	0.82140	146.41	41.404	10.054	0.0099428
254.88	0.14297	1352.9	0.00073913	175.78	175.88	0.90906	0.85712	1.2968	705.77	-0.23745	339.36	0.10027	0.014044	7.2786	0.13739	367.98	387.62	1.7398	0.70934	0.82220	146.42	41.285	10.062	0.0099607
255.10	0.14427	1352.3	0.00073949	176.05	176.16	0.91015	0.85737	1.2972	704.78	-0.23679	338.37	0.10017	0.014013	7.3413	0.13622	368.10	387.75	1.7396	0.70992	0.82300	146.44	41.167	10.070	0.0099785
255.31	0.14557	1351.6	0.00073984	176.33	176.44	0.91122	0.85761	1.2977	703.80	-0.23612	337.38	0.10007	0.013982	7.4039	0.13506	368.22	387.88	1.7394	0.71050	0.82379	146.45	41.051	10.078	0.0099962
255.52	0.14687	1351.0	0.00074020	176.60	176.71	0.91229	0.85786	1.2981	702.83	-0.23546	336.41	0.099975	0.013952	7.4666	0.13393	368.34	388.01	1.7393	0.71108	0.82458	146.47	40.936	10.085	0.010014
255.73	0.14817	1350.3	0.00074055	176.87	176.98	0.91334	0.85810	1.2986	701.87	-0.23480	335.45	0.099879	0.013921	7.5292	0.13282	368.46	388.14	1.7391	0.71165	0.82536	146.49	40.823	10.093	0.010031
255.93	0.14947	1349.7	0.00074090	177.14	177.25	0.91439	0.85835	1.2991	700.91	-0.23414	334.50	0.099784	0.013891	7.5918	0.13172	368.58	388.27	1.7389	0.71221	0.82614	146.50	40.711	10.100	0.010048
256.14	0.15077	1349.1	0.00074125	177.41	177.52	0.91544	0.85859	1.2995	699.96	-0.23349	333.56	0.099689	0.013861	7.6544	0.13064	368.70	388.40	1.7387	0.71278	0.82692	146.52	40.600	10.108	0.010066
256.34	0.15208	1348.4	0.00074160	177.67	177.78	0.91647	0.85883	1.3000	699.01	-0.23283	332.63	0.099595	0.013831	7.7170	0.12958	368.82	388.52	1.7386	0.71334	0.82769	146.53	40.490	10.115	0.010083
256.55	0.15338	1347.8	0.00074195	177.93	178.05	0.91750	0.85906	1.3004	698.07	-0.23218	331.71	0.099502	0.013802	7.7796	0.12854	368.93	388.65	1.7384	0.71389	0.82846	146.54	40.382	10.123	0.010100
256.75	0.15468	1347.2	0.00074229	178.20	178.31	0.91852	0.85930	1.3009	697.14	-0.23153	330.80	0.099409	0.013772	7.8421	0.12752	369.05	388.77	1.7382	0.71445	0.82922	146.56	40.275	10.130	0.010117
256.95	0.15598	1346.6	0.00074263	178.46	178.57	0.91953	0.85953	1.3013	696.22	-0.23088	329.89	0.099317	0.013743	7.9046	0.12651	369.16	388.89	1.7381	0.71500	0.82999	146.57	40.169	10.137	0.010133
257.15	0.15728	1345.9	0.00074297	178.72	178.83	0.92054	0.85977	1.3017	695.30	-0.23024	329.00	0.099225	0.013714	7.9671	0.12552	369.27	389.02	1.7379	0.71554	0.83075	146.58	40.064	10.144	0.010150
257.35	0.15858	1345.3	0.00074331	178.97	179.09	0.92154	0.86000	1.3022	694.38	-0.22959	328.12	0.099135	0.013685	8.0296	0.12454	369.39	389.14	1.7377	0.71609	0.83150	146.60	39.960	10.151	0.010167
257.54	0.15988	1344.7	0.00074365	179.23	179.35	0.92253	0.86023	1.3026	693.47	-0.22895	327.24	0.099044	0.013657	8.0921	0.12358	369.50	389.26	1.7376	0.71663	0.83225	146.61	39.858	10.159	0.010183
257.74	0.16118	1344.1	0.00074399	179.48	179.60	0.92352	0.86046	1.3031	692.57	-0.22831	326.38	0.098955	0.013628	8.1545	0.12263	369.61	389.38	1.7374	0.71717	0.83300	146.62	39.756	10.166	0.010200
257.93	0.16248	1343.5	0.00074432	179.73	179.86	0.92450	0.86069	1.3035	691.68	-0.22767	325.52	0.098866	0.013600	8.2170	0.12170	369.72	389.50	1.7373	0.71770	0.83375	146.64	39.656	10.173	0.010216
258.13	0.16378	1342.9	0.00074465	179.99	180.11	0.92547	0.86092	1.3039	690.78	-0.22703	324.67	0.098778	0.013572	8.2794	0.12078	369.83	389.61	1.7371	0.71823	0.83449	146.65	39.556	10.180	0.010232
258.32	0.16508	1342.3	0.00074499	180.23	180.36	0.92644	0.86114	1.3044	689.90	-0.22640	323.83	0.098690	0.013544	8.3418	0.11988	369.94	389.73	1.7370	0.71876	0.83523	146.66	39.458	10.187	0.010248
258.51	0.16638	1341.7	0.00074531	180.48	180.61	0.92740	0.86137	1.3048	689.02	-0.22576	322.99	0.098603	0.013517	8.4042	0.11899	370.05	389.85	1.7368	0.71929	0.83597	146.67	39.361	10.194	0.010264
258.70	0.16768	1341.1	0.00074564	180.73	180.85	0.92835	0.86159	1.3052	688.15	-0.22513	322.17	0.098516	0.013489	8.4666	0.11811	370.16	389.96	1.7367	0.71981	0.83670	146.68	39.264	10.200	0.010280
258.89	0.16898	1340.5	0.00074597	180.97	181.10	0.92930	0.86181	1.3056	687.28	-0.22450	321.35	0.098430	0.013462	8.5290	0.11725	370.26	390.08	1.7365	0.72033	0.83743	146.69	39.169	10.207	0.010296
259.07	0.17029	1340.0	0.00074630	181.22	181.35	0.93024	0.86203	1.3061	686.41	-0.22387	320.54	0.098344	0.013435	8.5913	0.11640	370.37	390.19	1.7364	0.72085	0.83816	146.70	39.075	10.214	0.010312
259.26	0.17159	1339.4	0.00074662	181.46	181.59	0.93117	0.86225	1.3065	685.56	-0.22325	319.74	0.098259	0.013408	8.6536	0.11556	370.48	390.31	1.7362	0.72137	0.83888	146.71	38.981	10.221	0.010327
259.44	0.17289	1338.8	0.00074694	181.70	181.83	0.93210	0.86247	1.3069	684.70	-0.22262	318.94	0.098175	0.013381	8.7160	0.11473	370.58	390.42	1.7361	0.72188	0.83960	146.72	38.889	10.227	0.010343
259.63	0.17419	1338.2	0.00074726	181.94	182.07	0.93303	0.86269	1.3073	683.85	-0.22200	318.15	0.098091	0.013354	8.7783	0.11392	370.69	390.53	1.7359	0.72239	0.84032	146.73	38.797	10.234	0.010358
259.81	0.17549	1337.6	0.00074758	182.18	182.31	0.93395	0.86291	1.3077	683.01	-0.22137	317.37	0.098008	0.013328	8.8406	0.11311	370.79	390.64	1.7358	0.72290	0.84104	146.74	38.706	10.241	0.010374
259.99	0.17679	1337.1	0.00074790	182.42	182.55	0.93486	0.86312	1.3082	682.17	-0.22075	316.60	0.097925	0.013302	8.9029	0.11232	370.89	390.75	1.7357	0.72340	0.84175	146.75	38.616	10.247	0.010389
260.17	0.17809	1336.5	0.00074822	182.65	182.79	0.93577	0.86334	1.3086	681.34	-0.22013	315.83	0.097843	0.013276	8.9651	0.11154	371.00	390.86	1.7355	0.72390	0.84246	146.76	38.527	10.254	0.010404
260.35	0.17939	1335.9	0.00074853	182.89	183.02	0.93667	0.86355	1.3090	680.51	-0.21951	315.07	0.097761	0.013250	9.0274	0.11077	371.10	390.97	1.7354	0.72440	0.84317	146.77	38.439	10.260	0.010419
260.53	0.18069	1335.4	0.00074885	183.12	183.26	0.93756	0.86376	1.3094	679.69	-0.21890	314.32	0.097679	0.013224	9.0896	0.11002	371.20	391.08	1.7353	0.72490	0.84387	146.78	38.352	10.267	0.010434
260.71	0.18199	1334.8	0.00074916	183.35	183.49	0.93845	0.86397	1.3098	678.87	-0.21828	313.57	0.097599	0.013198	9.1519	0.10927	371.30	391.19	1.7351	0.72539	0.84457	146.79	38.265	10.273	0.010449
260.89	0.18329	1334.3	0.00074947	183.58	183.72	0.93934	0.86418	1.3102	678.06	-0.21767	312.83	0.097518	0.013173	9.2141	0.10853	371.40	391.29	1.7350	0.72589	0.84527	146.79	38.180	10.280	0.010464
261.06	0.18459	1333.7	0.00074978	183.81	183.95	0.94022	0.86439	1.3106	677.25	-0.21705	312.10	0.097438	0.013147	9.2763	0.10780	371.50	391.40	1.7349	0.72638	0.84597	146.80	38.095	10.286	0.010479
261.24	0.18589	1333.2	0.00075009	184.04	184.18	0.94109	0.86460	1.3110	676.44	-0.21644	311.37	0.097359	0.013122	9.3385	0.10708	371.60	391.51	1.7347	0.72686	0.84667	146.81	38.011	10.292	0.010494
261.41	0.18719	1332.6	0.00075040	184.27	184.41	0.94196	0.86481	1.3115	675.64	-0.21583	310.65	0.097280	0.013097	9.4007	0.10638	371.70	391.61	1.7346	0.72735	0.84736	146.82	37.927	10.299	0.010508
261.58	0.18850	1332.1	0.00075071	184.49	184.64	0.94283	0.86501	1.3119	674.84	-0.21522	309.93	0.097201	0.013072	9.4629	0.10568	371.80	391.72	1.7345	0.72783	0.84805	146.83	37.845	10.305	0.010523
261.76	0.18980	1331.5	0.00075101	184.72	184.86	0.94369	0.86522	1.3123	674.05	-0.21462	309.22	0.097123	0.013048	9.5250	0.10499	371.90	391.82	1.7343	0.72831	0.84873	146.83	37.763	10.311	0.010537
261.93	0.19110	1331.0	0.00075132	184.94	185.09	0.94454	0.86542	1.3127	673.26	-0.21401	308.52	0.097046	0.013023	9.5872	0.10431	371.99	391.93	1.7342	0.72879	0.84942	146.84	37.682	10.317	0.010552
262.10	0.19240	1330.5	0.00075162	185.17	185.31	0.94539	0.86562	1.3131	672.48	-0.21341	307.82	0.096968	0.012998	9.6493	0.10363	372.09	392.03	1.7341	0.72927	0.85010	146.85	37.601	10.323	0.010566
262.27	0.19370	1329.9	0.00075192	185.39	185.53	0.94624	0.86583	1.3135	671.70	-0.21280	307.13	0.096892	0.012974	9.7115	0.10297	372.19	392.13	1.7340	0.72974	0.85078	146.85	37.522	10.330	0.010581
262.43	0.19500	1329.4	0.00075222	185.61	185.75	0.94708	0.86603	1.3139	670.92	-0.21220	306.44	0.096815	0.012950	9.7736	0.10232	372.28	392.23	1.7339	0.73021	0.85146	146.86	37.443	10.336	0.010595
262.60	0.19630	1328.9	0.00075252	185.83	185.97	0.94791	0.86623	1.3143	670.15	-0.21160	305.76	0.096740	0.012926	9.8357	0.10167	372.38	392.33	1.7337	0.73068	0.85213	146.87	37.365	10.342	0.010609
262.77	0.19760	1328.3	0.00075282	186.05	186.19	0.94875	0.86643	1.3147	669.39	-0.21100	305.09	0.096664	0.012902	9.8978	0.10103	372.47	392.43	1.7336	0.73115	0.85280	146.87	37.287	10.348	0.010623
262.93	0.19890	1327.8	0.00075312	186.26	186.41	0.94957	0.86663	1.3150	668.62	-0.21040	304.42	0.096589	0.012878	9.9599	0.10040	372.56	392.53	1.7335	0.73161	0.85348	146.88	37.210	10.354	0.010637
263.10	0.20020	1327.3	0.00075342	186.48	186.63	0.95039	0.86682	1.3154	667.86	-0.20980	303.75	0.096514	0.012854	10.022	0.099781	372.66	392.63	1.7334	0.73208	0.85414	146.88	37.134	10.360	0.010651
263.26	0.20150	1326.8	0.00075371	186.69	186.85	0.95121	0.86702	1.3158	667.11	-0.20920	303.09	0.096440	0.012831	10.084	0.099166	372.75	392.73	1.7333	0.73254	0.85481	146.89	37.058	10.366	0.010665
263.43	0.20280	1326.2	0.00075401	186.91	187.06	0.95203	0.86722	1.3162	666.36	-0.20861	302.44	0.096366	0.012807	10.146	0.098560	372.84	392.83	1.7332	0.73300	0.85547	146.89	36.983	10.372	0.010679
263.59	0.20410	1325.7	0.00075430	187.12	187.28	0.95284	0.86741	1.3166	665.61	-0.20801	301.79	0.096293	0.012784	10.208	0.097960	372.94	392.93	1.7330	0.73345	0.85614	146.90	36.909	10.378	0.010693
263.75	0.20540	1325.2	0.00075459	187.33	187.49	0.95364	0.86760	1.3170	664.86	-0.20742	301.15	0.096220	0.012761	10.270	0.097369	373.03	393.03	1.7329	0.73391	0.85680	146.91	36.835	10.383	0.010706
263.91	0.20671	1324.7	0.00075488	187.54	187.70	0.95444	0.86780	1.3174	664.12	-0.20683	300.51	0.096147	0.012738	10.332	0.096784	373.12	393.12	1.7328	0.73436	0.85745	146.91	36.762	10.389	0.010720
264.07	0.20801	1324.2	0.00075517	187.76	187.91	0.95524	0.86799	1.3178	663.39	-0.20624	299.87	0.096075	0.012715	10.394	0.096206	373.21	393.22	1.7327	0.73481	0.85811	146.91	36.690	10.395	0.010734
264.23	0.20931	1323.7	0.00075546	187.96	188.12	0.95603	0.86818	1.3182	662.65	-0.20565	299.24	0.096003	0.012692	10.456	0.095636	373.30	393.32	1.7326	0.73526	0.85876	146.92	36.618	10.401	0.010747
264.39	0.21061	1323.2	0.00075575	188.17	188.33	0.95682	0.86837	1.3185	661.92	-0.20506	298.62	0.095931	0.012669	10.518	0.095072	373.39	393.41	1.7325	0.73571	0.85941	146.92	36.546	10.407	0.010761
264.55	0.21191	1322.7	0.00075604	188.38	188.54	0.95760	0.86856	1.3189	661.20	-0.20447	298.00	0.095860	0.012647	10.580	0.094514	373.48	393.51	1.7324	0.73615	0.86006	146.93	36.476	10.412	0.010774
264.70	0.21321	1322.2	0.00075632	188.59	188.75	0.95838	0.86875	1.3193	660.47	-0.20388	297.38	0.095789	0.012624	10.642	0.093964	373.57	393.60	1.7323	0.73660	0.86071	146.93	36.405	10.418	0.010787
264.86	0.21451	1321.7	0.00075661	188.79	188.95	0.95916	0.86894	1.3197	659.76	-0.20330	296.77	0.095719	0.012602	10.704	0.093420	373.65	393.69	1.7322	0.73704	0.86135	146.94	36.336	10.424	0.010801
265.02	0.21581	1321.2	0.00075689	189.00	189.16	0.95993	0.86913	1.3201	659.04	-0.20271	296.17	0.095649	0.012580	10.766	0.092882	373.74	393.79	1.7321	0.73748	0.86200	146.94	36.267	10.429	0.010814
265.17	0.21711	1320.7	0.00075718	189.20	189.36	0.96070	0.86931	1.3204	658.33	-0.20213	295.56	0.095579	0.012558	10.828	0.092350	373.83	393.88	1.7320	0.73792	0.86264	146.94	36.198	10.435	0.010827
265.33	0.21841	1320.2	0.00075746	189.40	189.57	0.96147	0.86950	1.3208	657.62	-0.20155	294.97	0.095509	0.012536	10.890	0.091824	373.92	393.97	1.7319	0.73835	0.86328	146.95	36.130	10.441	0.010840
265.48	0.21971	1319.7	0.00075774	189.61	189.77	0.96223	0.86969	1.3212	656.91	-0.20096	294.37	0.095440	0.012514	10.952	0.091305	374.00	394.06	1.7318	0.73879	0.86392	146.95	36.063	10.446	0.010853
265.63	0.22101	1319.2	0.00075802	189.81	189.97	0.96298	0.86987	1.3216	656.21	-0.20038	293.78	0.095372	0.012492	11.014	0.090791	374.09	394.16	1.7317	0.73922	0.86455	146.95	35.996	10.452	0.010866
265.78	0.22231	1318.7	0.00075830	190.01	190.18	0.96374	0.87005	1.3220	655.51	-0.19980	293.20	0.095303	0.012470	11.076	0.090283	374.18	394.25	1.7316	0.73965	0.86519	146.96	35.929	10.457	0.010879
265.93	0.22361	1318.2	0.00075858	190.21	190.38	0.96449	0.87024	1.3223	654.81	-0.19922	292.62	0.095235	0.012449	11.138	0.089781	374.26	394.34	1.7315	0.74008	0.86582	146.96	35.864	10.463	0.010892
266.09	0.22492	1317.8	0.00075886	190.40	190.57	0.96523	0.87042	1.3227	654.12	-0.19864	292.04	0.095167	0.012427	11.200	0.089285	374.35	394.43	1.7314	0.74051	0.86645	146.96	35.798	10.468	0.010905
266.24	0.22622	1317.3	0.00075914	190.60	190.77	0.96598	0.87060	1.3231	653.43	-0.19807	291.47	0.095100	0.012406	11.262	0.088793	374.43	394.52	1.7313	0.74094	0.86708	146.96	35.733	10.474	0.010918
266.38	0.22752	1316.8	0.00075941	190.80	190.97	0.96672	0.87078	1.3234	652.74	-0.19749	290.90	0.095033	0.012384	11.324	0.088308	374.52	394.61	1.7312	0.74136	0.86770	146.97	35.669	10.479	0.010931
266.53	0.22882	1316.3	0.00075969	190.99	191.17	0.96745	0.87096	1.3238	652.06	-0.19691	290.33	0.094966	0.012363	11.386	0.087828	374.60	394.70	1.7311	0.74178	0.86833	146.97	35.605	10.484	0.010943
266.68	0.23012	1315.9	0.00075996	191.19	191.36	0.96819	0.87114	1.3242	651.38	-0.19634	289.77	0.094900	0.012342	11.448	0.087352	374.68	394.78	1.7310	0.74220	0.86895	146.97	35.542	10.490	0.010956
266.83	0.23142	1315.4	0.00076024	191.38	191.56	0.96891	0.87132	1.3245	650.70	-0.19576	289.22	0.094833	0.012321	11.510	0.086883	374.77	394.87	1.7309	0.74262	0.86957	146.97	35.479	10.495	0.010969
266.98	0.23272	1314.9	0.00076051	191.58	191.76	0.96964	0.87150	1.3249	650.03	-0.19519	288.66	0.094768	0.012300	11.572	0.086418	374.85	394.96	1.7308	0.74304	0.87019	146.97	35.416	10.501	0.010981
267.12	0.23402	1314.4	0.00076078	191.77	191.95	0.97036	0.87168	1.3253	649.36	-0.19462	288.11	0.094702	0.012279	11.634	0.085958	374.93	395.05	1.7307	0.74346	0.87081	146.98	35.354	10.506	0.010994
267.27	0.23532	1314.0	0.00076105	191.96	192.14	0.97108	0.87185	1.3256	648.69	-0.19405	287.57	0.094637	0.012259	11.696	0.085503	375.01	395.13	1.7306	0.74387	0.87143	146.98	35.293	10.511	0.011006
267.41	0.23662	1313.5	0.00076132	192.15	192.33	0.97180	0.87203	1.3260	648.02	-0.19348	287.02	0.094572	0.012238	11.757	0.085053	375.09	395.22	1.7305	0.74428	0.87204	146.98	35.231	10.516	0.011018
267.56	0.23792	1313.0	0.00076159	192.34	192.53	0.97251	0.87221	1.3264	647.36	-0.19291	286.48	0.094507	0.012218	11.819	0.084607	375.18	395.31	1.7304	0.74470	0.87266	146.98	35.171	10.522	0.011031
267.70	0.23922	1312.6	0.00076186	192.53	192.72	0.97322	0.87238	1.3267	646.70	-0.19234	285.95	0.094443	0.012197	11.881	0.084167	375.26	395.39	1.7303	0.74511	0.87327	146.98	35.111	10.527	0.011043
267.84	0.24052	1312.1	0.00076213	192.72	192.91	0.97393	0.87256	1.3271	646.04	-0.19177	285.42	0.094379	0.012177	11.943	0.083730	375.34	395.48	1.7302	0.74551	0.87388	146.98	35.051	10.532	0.011055
267.98	0.24182	1311.7	0.00076240	192.91	193.10	0.97463	0.87273	1.3275	645.39	-0.19120	284.89	0.094315	0.012157	12.005	0.083299	375.42	395.56	1.7301	0.74592	0.87449	146.98	34.991	10.537	0.011068
268.13	0.24313	1311.2	0.00076266	193.10	193.28	0.97533	0.87290	1.3278	644.73	-0.19063	284.36	0.094252	0.012137	12.067	0.082872	375.50	395.64	1.7300	0.74633	0.87509	146.98	34.932	10.542	0.011080
268.27	0.24443	1310.7	0.00076293	193.29	193.47	0.97602	0.87307	1.3282	644.08	-0.19007	283.84	0.094188	0.012117	12.129	0.082449	375.58	395.73	1.7300	0.74673	0.87570	146.99	34.874	10.548	0.011092
268.41	0.24573	1310.3	0.00076319	193.47	193.66	0.97672	0.87325	1.3285	643.44	-0.18950	283.33	0.094125	0.012097	12.191	0.082030	375.65	395.81	1.7299	0.74713	0.87630	146.99	34.816	10.553	0.011104
268.55	0.24703	1309.8	0.00076346	193.66	193.85	0.97741	0.87342	1.3289	642.79	-0.18894	282.81	0.094063	0.012077	12.252	0.081616	375.73	395.90	1.7298	0.74753	0.87691	146.99	34.758	10.558	0.011116
268.69	0.24833	1309.4	0.00076372	193.84	194.03	0.97810	0.87359	1.3293	642.15	-0.18837	282.30	0.094000	0.012057	12.314	0.081206	375.81	395.98	1.7297	0.74793	0.87751	146.99	34.701	10.563	0.011128
268.83	0.24963	1308.9	0.00076399	194.03	194.22	0.97878	0.87376	1.3296	641.51	-0.18781	281.79	0.093938	0.012037	12.376	0.080800	375.89	396.06	1.7296	0.74833	0.87811	146.99	34.644	10.568	0.011140
268.97	0.25093	1308.5	0.00076425	194.21	194.40	0.97946	0.87393	1.3300	640.88	-0.18725	281.29	0.093876	0.012018	12.438	0.080399	375.97	396.14	1.7295	0.74873	0.87870	146.99	34.587	10.573	0.011152
269.10	0.25223	1308.0	0.00076451	194.39	194.59	0.98014	0.87410	1.3303	640.24	-0.18668	280.78	0.093815	0.011998	12.500	0.080001	376.05	396.22	1.7294	0.74912	0.87930	146.99	34.531	10.578	0.011164
269.24	0.25353	1307.6	0.00076477	194.57	194.77	0.98082	0.87426	1.3307	639.61	-0.18612	280.28	0.093753	0.011979	12.562	0.079607	376.12	396.31	1.7294	0.74952	0.87989	146.99	34.475	10.583	0.011176
269.38	0.25483	1307.1	0.00076503	194.76	194.95	0.98149	0.87443	1.3310	638.99	-0.18556	279.79	0.093692	0.011959	12.624	0.079217	376.20	396.39	1.7293	0.74991	0.88049	146.99	34.420	10.588	0.011187
269.51	0.25613	1306.7	0.00076529	194.94	195.13	0.98216	0.87460	1.3314	638.36	-0.18500	279.30	0.093632	0.011940	12.685	0.078831	376.28	396.47	1.7292	0.75030	0.88108	146.99	34.365	10.593	0.011199
269.65	0.25743	1306.3	0.00076555	195.12	195.31	0.98283	0.87476	1.3317	637.74	-0.18444	278.81	0.093571	0.011921	12.747	0.078448	376.35	396.55	1.7291	0.75069	0.88167	146.99	34.310	10.598	0.011211
269.78	0.25873	1305.8	0.00076580	195.30	195.49	0.98349	0.87493	1.3321	637.11	-0.18388	278.32	0.093511	0.011902	12.809	0.078069	376.43	396.63	1.7290	0.75108	0.88226	146.99	34.256	10.603	0.011222
269.92	0.26003	1305.4	0.00076606	195.47	195.67	0.98416	0.87510	1.3324	636.50	-0.18333	277.84	0.093451	0.011883	12.871	0.077694	376.50	396.71	1.7289	0.75147	0.88285	146.99	34.202	10.608	0.011234
270.05	0.26134	1304.9	0.00076632	195.65	195.85	0.98482	0.87526	1.3328	635.88	-0.18277	277.35	0.093391	0.011864	12.933	0.077323	376.58	396.79	1.7289	0.75185	0.88343	146.99	34.148	10.613	0.011246
270.19	0.26264	1304.5	0.00076657	195.83	196.03	0.98547	0.87543	1.3331	635.27	-0.18221	276.88	0.093331	0.011845	12.995	0.076955	376.65	396.86	1.7288	0.75224	0.88402	146.98	34.095	10.618	0.011257
270.32	0.26394	1304.1	0.00076683	196.01	196.21	0.98613	0.87559	1.3335	634.65	-0.18166	276.40	0.093272	0.011826	13.056	0.076591	376.73	396.94	1.7287	0.75262	0.88460	146.98	34.042	10.622	0.011269
270.45	0.26524	1303.6	0.00076708	196.18	196.39	0.98678	0.87575	1.3338	634.05	-0.18110	275.93	0.093213	0.011807	13.118	0.076230	376.80	397.02	1.7286	0.75300	0.88518	146.98	33.990	10.627	0.011280
270.58	0.26654	1303.2	0.00076734	196.36	196.56	0.98743	0.87591	1.3342	633.44	-0.18054	275.46	0.093154	0.011789	13.180	0.075872	376.88	397.10	1.7286	0.75339	0.88576	146.98	33.938	10.632	0.011291
270.72	0.26784	1302.8	0.00076759	196.53	196.74	0.98807	0.87608	1.3345	632.83	-0.17999	274.99	0.093095	0.011770	13.242	0.075518	376.95	397.18	1.7285	0.75377	0.88634	146.98	33.886	10.637	0.011303
270.85	0.26914	1302.3	0.00076784	196.71	196.91	0.98872	0.87624	1.3349	632.23	-0.17944	274.53	0.093037	0.011752	13.304	0.075167	377.02	397.25	1.7284	0.75414	0.88692	146.98	33.834	10.642	0.011314
270.98	0.27044	1301.9	0.00076810	196.88	197.09	0.98936	0.87640	1.3352	631.63	-0.17888	274.07	0.092979	0.011733	13.366	0.074819	377.10	397.33	1.7283	0.75452	0.88750	146.98	33.783	10.647	0.011325
271.11	0.27174	1301.5	0.00076835	197.05	197.26	0.99000	0.87656	1.3356	631.03	-0.17833	273.61	0.092921	0.011715	13.427	0.074475	377.17	397.41	1.7282	0.75490	0.88808	146.98	33.732	10.651	0.011337
271.24	0.27304	1301.1	0.00076860	197.22	197.43	0.99063	0.87672	1.3359	630.44	-0.17778	273.15	0.092863	0.011697	13.489	0.074133	377.24	397.48	1.7282	0.75527	0.88865	146.97	33.682	10.656	0.011348
271.37	0.27434	1300.6	0.00076885	197.40	197.61	0.99127	0.87688	1.3362	629.84	-0.17723	272.70	0.092806	0.011678	13.551	0.073795	377.31	397.56	1.7281	0.75564	0.88922	146.97	33.632	10.661	0.011359
271.49	0.27564	1300.2	0.00076910	197.57	197.78	0.99190	0.87704	1.3366	629.25	-0.17668	272.25	0.092748	0.011660	13.613	0.073460	377.39	397.63	1.7280	0.75602	0.88980	146.97	33.582	10.665	0.011370
271.62	0.27694	1299.8	0.00076935	197.74	197.95	0.99252	0.87720	1.3369	628.66	-0.17613	271.80	0.092691	0.011642	13.675	0.073128	377.46	397.71	1.7279	0.75639	0.89037	146.97	33.532	10.670	0.011381
271.75	0.27824	1299.4	0.00076959	197.91	198.12	0.99315	0.87735	1.3373	628.08	-0.17558	271.35	0.092635	0.011624	13.736	0.072799	377.53	397.78	1.7279	0.75676	0.89094	146.97	33.483	10.675	0.011392
271.88	0.27955	1299.0	0.00076984	198.08	198.29	0.99377	0.87751	1.3376	627.49	-0.17503	270.91	0.092578	0.011606	13.798	0.072473	377.60	397.86	1.7278	0.75713	0.89150	146.97	33.434	10.679	0.011403
272.00	0.28085	1298.6	0.00077009	198.25	198.46	0.99440	0.87767	1.3379	626.91	-0.17448	270.47	0.092522	0.011588	13.860	0.072150	377.67	397.93	1.7277	0.75749	0.89207	146.96	33.385	10.684	0.011414
272.13	0.28215	1298.1	0.00077034	198.42	198.63	0.99501	0.87783	1.3383	626.33	-0.17393	270.03	0.092466	0.011571	13.922	0.071829	377.74	398.01	1.7277	0.75786	0.89264	146.96	33.337	10.689	0.011425
272.26	0.28345	1297.7	0.00077058	198.58	198.80	0.99563	0.87798	1.3386	625.75	-0.17338	269.59	0.092410	0.011553	13.984	0.071512	377.81	398.08	1.7276	0.75823	0.89320	146.96	33.289	10.693	0.011436
272.38	0.28475	1297.3	0.00077083	198.75	198.97	0.99625	0.87814	1.3390	625.17	-0.17284	269.16	0.092354	0.011535	14.045	0.071197	377.88	398.15	1.7275	0.75859	0.89377	146.96	33.241	10.698	0.011447
272.51	0.28605	1296.9	0.00077107	198.92	199.14	0.99686	0.87829	1.3393	624.60	-0.17229	268.73	0.092298	0.011518	14.107	0.070885	377.95	398.23	1.7274	0.75895	0.89433	146.95	33.194	10.703	0.011458
272.63	0.28735	1296.5	0.00077132	199.08	199.30	0.99747	0.87845	1.3396	624.03	-0.17174	268.30	0.092243	0.011500	14.169	0.070576	378.02	398.30	1.7274	0.75932	0.89489	146.95	33.146	10.707	0.011469
272.76	0.28865	1296.1	0.00077156	199.25	199.47	0.99808	0.87860	1.3400	623.46	-0.17120	267.87	0.092188	0.011483	14.231	0.070270	378.09	398.37	1.7273	0.75968	0.89545	146.95	33.100	10.712	0.011480
272.88	0.28995	1295.7	0.00077180	199.41	199.64	0.99868	0.87875	1.3403	622.89	-0.17065	267.45	0.092133	0.011465	14.293	0.069966	378.16	398.45	1.7272	0.76004	0.89601	146.95	33.053	10.716	0.011491
273.00	0.29125	1295.3	0.00077205	199.58	199.80	0.99928	0.87891	1.3406	622.32	-0.17011	267.03	0.092078	0.011448	14.355	0.069665	378.23	398.52	1.7272	0.76039	0.89657	146.94	33.007	10.721	0.011501
273.13	0.29255	1294.9	0.00077229	199.74	199.97	0.99988	0.87906	1.3410	621.76	-0.16956	266.61	0.092024	0.011431	14.416	0.069366	378.30	398.59	1.7271	0.76075	0.89712	146.94	32.961	10.725	0.011512
273.25	0.29385	1294.5	0.00077253	199.91	200.13	1.0005	0.87921	1.3413	621.19	-0.16902	266.19	0.091970	0.011414	14.478	0.069070	378.36	398.66	1.7270	0.76111	0.89768	146.94	32.915	10.730	0.011523
273.37	0.29515	1294.0	0.00077277	200.07	200.30	1.0011	0.87936	1.3416	620.63	-0.16848	265.77	0.091915	0.011396	14.540	0.068776	378.43	398.73	1.7270	0.76146	0.89823	146.93	32.869	10.734	0.011533
273.49	0.29645	1293.6	0.00077301	200.23	200.46	1.0017	0.87952	1.3420	620.07	-0.16793	265.36	0.091862	0.011379	14.602	0.068485	378.50	398.80	1.7269	0.76182	0.89879	146.93	32.824	10.739	0.011544
273.61	0.29776	1293.2	0.00077325	200.39	200.62	1.0023	0.87967	1.3423	619.52	-0.16739	264.95	0.091808	0.011362	14.664	0.068196	378.57	398.87	1.7268	0.76217	0.89934	146.93	32.779	10.743	0.011555
273.73	0.29906	1292.8	0.00077349	200.55	200.79	1.0029	0.87982	1.3426	618.96	-0.16685	264.54	0.091754	0.011345	14.725	0.067910	378.64	398.94	1.7268	0.76252	0.89989	146.92	32.734	10.748	0.011565
273.86	0.30036	1292.4	0.00077373	200.72	200.95	1.0034	0.87997	1.3430	618.41	-0.16631	264.13	0.091701	0.011329	14.787	0.067626	378.70	399.01	1.7267	0.76288	0.90044	146.92	32.690	10.752	0.011576
273.98	0.30166	1292.0	0.00077397	200.88	201.11	1.0040	0.88012	1.3433	617.86	-0.16577	263.73	0.091648	0.011312	14.849	0.067345	378.77	399.08	1.7266	0.76323	0.90099	146.92	32.646	10.757	0.011586
274.09	0.30296	1291.6	0.00077420	201.04	201.27	1.0046	0.88027	1.3436	617.31	-0.16523	263.33	0.091595	0.011295	14.911	0.067066	378.84	399.15	1.7266	0.76358	0.90154	146.91	32.602	10.761	0.011597
274.21	0.30426	1291.3	0.00077444	201.20	201.43	1.0052	0.88042	1.3440	616.76	-0.16469	262.93	0.091542	0.011278	14.973	0.066789	378.90	399.22	1.7265	0.76392	0.90208	146.91	32.558	10.765	0.011607
274.33	0.30556	1290.9	0.00077468	201.35	201.59	1.0058	0.88056	1.3443	616.21	-0.16415	262.53	0.091490	0.011262	15.034	0.066514	378.97	399.29	1.7264	0.76427	0.90263	146.91	32.515	10.770	0.011617
274.45	0.30686	1290.5	0.00077491	201.51	201.75	1.0064	0.88071	1.3446	615.67	-0.16361	262.13	0.091437	0.011245	15.096	0.066242	379.03	399.36	1.7264	0.76462	0.90318	146.90	32.471	10.774	0.011628
274.57	0.30816	1290.1	0.00077515	201.67	201.91	1.0069	0.88086	1.3449	615.13	-0.16307	261.74	0.091385	0.011229	15.158	0.065972	379.10	399.43	1.7263	0.76496	0.90372	146.90	32.428	10.778	0.011638
274.69	0.30946	1289.7	0.00077539	201.83	202.07	1.0075	0.88101	1.3453	614.59	-0.16253	261.35	0.091333	0.011212	15.220	0.065704	379.16	399.50	1.7262	0.76531	0.90426	146.89	32.386	10.783	0.011648
274.80	0.31076	1289.3	0.00077562	201.99	202.23	1.0081	0.88115	1.3456	614.05	-0.16199	260.96	0.091281	0.011196	15.282	0.065438	379.23	399.57	1.7262	0.76565	0.90481	146.89	32.343	10.787	0.011659
274.92	0.31206	1288.9	0.00077585	202.14	202.38	1.0086	0.88130	1.3459	613.51	-0.16145	260.57	0.091229	0.011179	15.343	0.065174	379.29	399.63	1.7261	0.76599	0.90535	146.89	32.301	10.791	0.011669
275.04	0.31336	1288.5	0.00077609	202.30	202.54	1.0092	0.88145	1.3462	612.97	-0.16092	260.18	0.091178	0.011163	15.405	0.064913	379.36	399.70	1.7261	0.76633	0.90589	146.88	32.259	10.796	0.011679
275.15	0.31466	1288.1	0.00077632	202.45	202.70	1.0098	0.88159	1.3466	612.44	-0.16038	259.80	0.091126	0.011147	15.467	0.064654	379.42	399.77	1.7260	0.76667	0.90643	146.88	32.217	10.800	0.011689
275.27	0.31597	1287.7	0.00077655	202.61	202.85	1.0103	0.88174	1.3469	611.91	-0.15984	259.41	0.091075	0.011131	15.529	0.064396	379.49	399.84	1.7259	0.76701	0.90696	146.87	32.176	10.804	0.011699
275.39	0.31727	1287.4	0.00077679	202.76	203.01	1.0109	0.88188	1.3472	611.38	-0.15931	259.03	0.091024	0.011115	15.591	0.064141	379.55	399.90	1.7259	0.76735	0.90750	146.87	32.134	10.809	0.011710
275.50	0.31857	1287.0	0.00077702	202.92	203.17	1.0115	0.88203	1.3475	610.85	-0.15877	258.65	0.090973	0.011099	15.653	0.063887	379.62	399.97	1.7258	0.76769	0.90804	146.87	32.093	10.813	0.011720
275.62	0.31987	1286.6	0.00077725	203.07	203.32	1.0120	0.88217	1.3479	610.32	-0.15824	258.28	0.090923	0.011083	15.714	0.063636	379.68	400.03	1.7258	0.76803	0.90857	146.86	32.052	10.817	0.011730
275.73	0.32117	1286.2	0.00077748	203.22	203.47	1.0126	0.88231	1.3482	609.80	-0.15770	257.90	0.090872	0.011067	15.776	0.063387	379.74	400.10	1.7257	0.76836	0.90911	146.86	32.012	10.821	0.011740
275.84	0.32247	1285.8	0.00077771	203.38	203.63	1.0131	0.88246	1.3485	609.27	-0.15717	257.53	0.090822	0.011051	15.838	0.063139	379.81	400.17	1.7256	0.76870	0.90964	146.85	31.971	10.825	0.011750
275.96	0.32377	1285.4	0.00077794	203.53	203.78	1.0137	0.88260	1.3488	608.75	-0.15663	257.16	0.090772	0.011035	15.900	0.062894	379.87	400.23	1.7256	0.76903	0.91017	146.85	31.931	10.830	0.011760
276.07	0.32507	1285.1	0.00077817	203.68	203.94	1.0142	0.88274	1.3492	608.23	-0.15610	256.79	0.090722	0.011019	15.962	0.062650	379.93	400.30	1.7255	0.76936	0.91071	146.84	31.891	10.834	0.011770
276.18	0.32637	1284.7	0.00077840	203.83	204.09	1.0148	0.88288	1.3495	607.71	-0.15556	256.42	0.090672	0.011003	16.023	0.062408	379.99	400.36	1.7255	0.76970	0.91124	146.84	31.851	10.838	0.011780
276.30	0.32767	1284.3	0.00077863	203.99	204.24	1.0153	0.88303	1.3498	607.19	-0.15503	256.05	0.090622	0.010988	16.085	0.062169	380.06	400.43	1.7254	0.77003	0.91177	146.83	31.812	10.842	0.011790
276.41	0.32897	1283.9	0.00077886	204.14	204.39	1.0159	0.88317	1.3501	606.68	-0.15450	255.69	0.090573	0.010972	16.147	0.061930	380.12	400.49	1.7253	0.77036	0.91229	146.83	31.773	10.846	0.011800
276.52	0.33027	1283.6	0.00077908	204.29	204.54	1.0164	0.88331	1.3504	606.16	-0.15397	255.32	0.090524	0.010956	16.209	0.061694	380.18	400.56	1.7253	0.77069	0.91282	146.82	31.733	10.851	0.011809
276.63	0.33157	1283.2	0.00077931	204.44	204.69	1.0170	0.88345	1.3508	605.65	-0.15343	254.96	0.090474	0.010941	16.271	0.061460	380.24	400.62	1.7252	0.77102	0.91335	146.82	31.694	10.855	0.011819
276.74	0.33287	1282.8	0.00077954	204.59	204.85	1.0175	0.88359	1.3511	605.14	-0.15290	254.60	0.090425	0.010925	16.333	0.061227	380.30	400.69	1.7252	0.77134	0.91388	146.81	31.656	10.859	0.011829
276.85	0.33418	1282.4	0.00077977	204.73	205.00	1.0180	0.88373	1.3514	604.63	-0.15237	254.25	0.090376	0.010910	16.395	0.060996	380.37	400.75	1.7251	0.77167	0.91440	146.81	31.617	10.863	0.011839
276.96	0.33548	1282.1	0.00077999	204.88	205.15	1.0186	0.88387	1.3517	604.12	-0.15184	253.89	0.090328	0.010895	16.456	0.060767	380.43	400.81	1.7251	0.77200	0.91493	146.80	31.579	10.867	0.011849
277.08	0.33678	1281.7	0.00078022	205.03	205.29	1.0191	0.88401	1.3520	603.61	-0.15131	253.53	0.090279	0.010879	16.518	0.060539	380.49	400.88	1.7250	0.77232	0.91545	146.80	31.541	10.871	0.011858
277.19	0.33808	1281.3	0.00078044	205.18	205.44	1.0197	0.88415	1.3523	603.11	-0.15078	253.18	0.090231	0.010864	16.580	0.060313	380.55	400.94	1.7249	0.77265	0.91597	146.79	31.503	10.875	0.011868
277.29	0.33938	1281.0	0.00078067	205.33	205.59	1.0202	0.88428	1.3527	602.61	-0.15025	252.83	0.090183	0.010849	16.642	0.060089	380.61	401.00	1.7249	0.77297	0.91650	146.79	31.465	10.879	0.011878
277.40	0.34068	1280.6	0.00078089	205.47	205.74	1.0207	0.88442	1.3530	602.10	-0.14972	252.48	0.090134	0.010834	16.704	0.059867	380.67	401.06	1.7248	0.77329	0.91702	146.78	31.428	10.883	0.011888
277.51	0.34198	1280.2	0.00078112	205.62	205.89	1.0212	0.88456	1.3533	601.60	-0.14919	252.13	0.090086	0.010818	16.766	0.059646	380.73	401.13	1.7248	0.77361	0.91754	146.77	31.390	10.887	0.011897
277.62	0.34328	1279.9	0.00078134	205.77	206.04	1.0218	0.88470	1.3536	601.10	-0.14866	251.79	0.090039	0.010803	16.827	0.059427	380.79	401.19	1.7247	0.77393	0.91806	146.77	31.353	10.891	0.011907
277.73	0.34458	1279.5	0.00078156	205.91	206.18	1.0223	0.88484	1.3539	600.61	-0.14813	251.44	0.089991	0.010788	16.889	0.059209	380.85	401.25	1.7247	0.77425	0.91858	146.76	31.316	10.895	0.011916
277.84	0.34588	1279.1	0.00078179	206.06	206.33	1.0228	0.88497	1.3542	600.11	-0.14760	251.10	0.089943	0.010773	16.951	0.058993	380.91	401.31	1.7246	0.77457	0.91909	146.76	31.280	10.899	0.011926
277.95	0.34718	1278.8	0.00078201	206.20	206.48	1.0233	0.88511	1.3546	599.61	-0.14707	250.76	0.089896	0.010758	17.013	0.058778	380.97	401.38	1.7246	0.77489	0.91961	146.75	31.243	10.903	0.011935
278.05	0.34848	1278.4	0.00078223	206.35	206.62	1.0239	0.88524	1.3549	599.12	-0.14654	250.42	0.089849	0.010743	17.075	0.058565	381.03	401.44	1.7245	0.77521	0.92013	146.75	31.207	10.907	0.011945
278.16	0.34978	1278.0	0.00078245	206.49	206.77	1.0244	0.88538	1.3552	598.63	-0.14601	250.08	0.089802	0.010729	17.137	0.058354	381.09	401.50	1.7245	0.77553	0.92064	146.74	31.170	10.911	0.011955
278.27	0.35108	1277.7	0.00078267	206.64	206.91	1.0249	0.88552	1.3555	598.14	-0.14549	249.74	0.089755	0.010714	17.199	0.058144	381.15	401.56	1.7244	0.77584	0.92116	146.73	31.134	10.915	0.011964
278.37	0.35239	1277.3	0.00078289	206.78	207.06	1.0254	0.88565	1.3558	597.65	-0.14496	249.40	0.089708	0.010699	17.261	0.057935	381.20	401.62	1.7244	0.77616	0.92167	146.73	31.098	10.919	0.011973
278.48	0.35369	1277.0	0.00078311	206.92	207.20	1.0259	0.88579	1.3561	597.16	-0.14443	249.07	0.089661	0.010684	17.322	0.057728	381.26	401.68	1.7243	0.77647	0.92219	146.72	31.063	10.923	0.011983
278.59	0.35499	1276.6	0.00078333	207.07	207.34	1.0264	0.88592	1.3564	596.67	-0.14390	248.74	0.089615	0.010670	17.384	0.057523	381.32	401.74	1.7242	0.77679	0.92270	146.72	31.027	10.927	0.011992
278.69	0.35629	1276.2	0.00078355	207.21	207.49	1.0270	0.88605	1.3567	596.19	-0.14338	248.40	0.089569	0.010655	17.446	0.057319	381.38	401.80	1.7242	0.77710	0.92321	146.71	30.992	10.931	0.012002
278.80	0.35759	1275.9	0.00078377	207.35	207.63	1.0275	0.88619	1.3571	595.70	-0.14285	248.07	0.089522	0.010640	17.508	0.057116	381.44	401.86	1.7241	0.77741	0.92372	146.70	30.957	10.935	0.012011
278.90	0.35889	1275.5	0.00078399	207.49	207.77	1.0280	0.88632	1.3574	595.22	-0.14233	247.75	0.089476	0.010626	17.570	0.056915	381.49	401.92	1.7241	0.77772	0.92423	146.70	30.922	10.939	0.012020
279.01	0.36019	1275.2	0.00078421	207.63	207.92	1.0285	0.88646	1.3577	594.74	-0.14180	247.42	0.089430	0.010611	17.632	0.056715	381.55	401.98	1.7240	0.77804	0.92474	146.69	30.887	10.943	0.012030
279.11	0.36149	1274.8	0.00078443	207.77	208.06	1.0290	0.88659	1.3580	594.26	-0.14127	247.09	0.089384	0.010597	17.694	0.056517	381.61	402.04	1.7240	0.77835	0.92525	146.68	30.853	10.947	0.012039
279.22	0.36279	1274.5	0.00078465	207.92	208.20	1.0295	0.88672	1.3583	593.78	-0.14075	246.77	0.089339	0.010583	17.756	0.056320	381.67	402.10	1.7239	0.77866	0.92576	146.68	30.818	10.951	0.012048
279.32	0.36409	1274.1	0.00078486	208.06	208.34	1.0300	0.88685	1.3586	593.30	-0.14022	246.45	0.089293	0.010568	17.818	0.056124	381.72	402.16	1.7239	0.77896	0.92627	146.67	30.784	10.955	0.012058
279.42	0.36539	1273.8	0.00078508	208.20	208.48	1.0305	0.88698	1.3589	592.83	-0.13970	246.12	0.089248	0.010554	17.880	0.055930	381.78	402.22	1.7238	0.77927	0.92677	146.67	30.750	10.959	0.012067
279.53	0.36669	1273.4	0.00078530	208.33	208.62	1.0310	0.88712	1.3592	592.35	-0.13917	245.80	0.089202	0.010540	17.942	0.055737	381.84	402.28	1.7238	0.77958	0.92728	146.66	30.716	10.962	0.012076
279.63	0.36799	1273.1	0.00078551	208.47	208.76	1.0315	0.88725	1.3595	591.88	-0.13865	245.48	0.089157	0.010525	18.003	0.055545	381.89	402.33	1.7237	0.77989	0.92778	146.65	30.682	10.966	0.012085
279.73	0.36929	1272.7	0.00078573	208.61	208.90	1.0320	0.88738	1.3598	591.41	-0.13812	245.17	0.089112	0.010511	18.065	0.055354	381.95	402.39	1.7237	0.78019	0.92829	146.65	30.648	10.970	0.012094
279.83	0.37060	1272.4	0.00078595	208.75	209.04	1.0325	0.88751	1.3601	590.94	-0.13760	244.85	0.089067	0.010497	18.127	0.055165	382.01	402.45	1.7236	0.78050	0.92879	146.64	30.615	10.974	0.012104
279.94	0.37190	1272.0	0.00078616	208.89	209.18	1.0330	0.88764	1.3605	590.47	-0.13708	244.54	0.089022	0.010483	18.189	0.054977	382.06	402.51	1.7236	0.78080	0.92929	146.63	30.582	10.978	0.012113
280.04	0.37320	1271.7	0.00078638	209.03	209.32	1.0335	0.88777	1.3608	590.00	-0.13655	244.22	0.088978	0.010469	18.251	0.054791	382.12	402.57	1.7235	0.78110	0.92980	146.62	30.548	10.982	0.012122
280.14	0.37450	1271.3	0.00078659	209.16	209.46	1.0340	0.88790	1.3611	589.53	-0.13603	243.91	0.088933	0.010455	18.313	0.054605	382.18	402.62	1.7235	0.78141	0.93030	146.62	30.515	10.985	0.012131
280.24	0.37580	1271.0	0.00078680	209.30	209.60	1.0345	0.88803	1.3614	589.06	-0.13551	243.60	0.088889	0.010441	18.375	0.054421	382.23	402.68	1.7234	0.78171	0.93080	146.61	30.483	10.989	0.012140
280.34	0.37710	1270.6	0.00078702	209.44	209.74	1.0349	0.88816	1.3617	588.60	-0.13498	243.29	0.088844	0.010427	18.437	0.054238	382.29	402.74	1.7234	0.78201	0.93130	146.60	30.450	10.993	0.012149
280.44	0.37840	1270.3	0.00078723	209.58	209.87	1.0354	0.88829	1.3620	588.14	-0.13446	242.98	0.088800	0.010413	18.499	0.054057	382.34	402.80	1.7234	0.78231	0.93180	146.60	30.417	10.997	0.012158
280.54	0.37970	1269.9	0.00078744	209.71	210.01	1.0359	0.88842	1.3623	587.67	-0.13394	242.67	0.088756	0.010399	18.561	0.053876	382.40	402.85	1.7233	0.78261	0.93230	146.59	30.385	11.001	0.012167
280.64	0.38100	1269.6	0.00078766	209.85	210.15	1.0364	0.88855	1.3626	587.21	-0.13342	242.37	0.088712	0.010385	18.623	0.053697	382.45	402.91	1.7233	0.78291	0.93280	146.58	30.353	11.004	0.012176
280.74	0.38230	1269.2	0.00078787	209.98	210.28	1.0369	0.88867	1.3629	586.75	-0.13289	242.06	0.088669	0.010372	18.685	0.053519	382.51	402.97	1.7232	0.78321	0.93330	146.58	30.321	11.008	0.012185
280.84	0.38360	1268.9	0.00078808	210.12	210.42	1.0374	0.88880	1.3632	586.29	-0.13237	241.76	0.088625	0.010358	18.747	0.053342	382.56	403.02	1.7232	0.78351	0.93379	146.57	30.289	11.012	0.012194
280.94	0.38490	1268.6	0.00078829	210.25	210.56	1.0378	0.88893	1.3635	585.84	-0.13185	241.46	0.088581	0.010344	18.809	0.053166	382.62	403.08	1.7231	0.78380	0.93429	146.56	30.257	11.016	0.012203
281.04	0.38620	1268.2	0.00078851	210.39	210.69	1.0383	0.88906	1.3638	585.38	-0.13133	241.16	0.088538	0.010330	18.871	0.052992	382.67	403.14	1.7231	0.78410	0.93479	146.55	30.225	11.019	0.012212
281.14	0.38750	1267.9	0.00078872	210.52	210.83	1.0388	0.88918	1.3641	584.92	-0.13081	240.86	0.088495	0.010317	18.933	0.052818	382.72	403.19	1.7230	0.78440	0.93528	146.55	30.194	11.023	0.012221
281.24	0.38881	1267.5	0.00078893	210.66	210.96	1.0393	0.88931	1.3644	584.47	-0.13029	240.56	0.088451	0.010303	18.995	0.052646	382.78	403.25	1.7230	0.78469	0.93577	146.54	30.162	11.027	0.012230
281.34	0.39011	1267.2	0.00078914	210.79	211.10	1.0398	0.88944	1.3647	584.02	-0.12976	240.26	0.088408	0.010290	19.057	0.052474	382.83	403.30	1.7229	0.78499	0.93627	146.53	30.131	11.031	0.012239
281.44	0.39141	1266.9	0.00078935	210.92	211.23	1.0402	0.88956	1.3650	583.57	-0.12924	239.96	0.088365	0.010276	19.119	0.052304	382.89	403.36	1.7229	0.78528	0.93676	146.52	30.100	11.034	0.012247
281.54	0.39271	1266.5	0.00078956	211.06	211.37	1.0407	0.88969	1.3653	583.11	-0.12872	239.67	0.088322	0.010263	19.181	0.052135	382.94	403.41	1.7228	0.78557	0.93725	146.52	30.069	11.038	0.012256
281.63	0.39401	1266.2	0.00078977	211.19	211.50	1.0412	0.88982	1.3656	582.67	-0.12820	239.37	0.088280	0.010249	19.243	0.051967	382.99	403.47	1.7228	0.78587	0.93775	146.51	30.038	11.042	0.012265
281.73	0.39531	1265.9	0.00078998	211.32	211.63	1.0416	0.88994	1.3659	582.22	-0.12768	239.08	0.088237	0.010236	19.305	0.051800	383.05	403.52	1.7228	0.78616	0.93824	146.50	30.008	11.045	0.012274
281.83	0.39661	1265.5	0.00079019	211.45	211.77	1.0421	0.89007	1.3662	581.77	-0.12716	238.79	0.088195	0.010223	19.367	0.051634	383.10	403.58	1.7227	0.78645	0.93873	146.49	29.977	11.049	0.012283
281.93	0.39791	1265.2	0.00079040	211.58	211.90	1.0426	0.89019	1.3665	581.32	-0.12664	238.50	0.088152	0.010209	19.429	0.051469	383.15	403.63	1.7227	0.78674	0.93922	146.49	29.947	11.053	0.012291
282.02	0.39921	1264.9	0.00079060	211.72	212.03	1.0430	0.89032	1.3668	580.88	-0.12612	238.21	0.088110	0.010196	19.491	0.051306	383.20	403.69	1.7226	0.78703	0.93971	146.48	29.917	11.056	0.012300
282.12	0.40051	1264.5	0.00079081	211.85	212.16	1.0435	0.89044	1.3671	580.43	-0.12560	237.92	0.088068	0.010183	19.553	0.051143	383.26	403.74	1.7226	0.78732	0.94020	146.47	29.887	11.060	0.012309
282.21	0.40181	1264.2	0.00079102	211.98	212.30	1.0440	0.89056	1.3674	579.99	-0.12508	237.63	0.088026	0.010169	19.615	0.050981	383.31	403.79	1.7225	0.78761	0.94069	146.46	29.857	11.064	0.012317
282.31	0.40311	1263.9	0.00079123	212.11	212.43	1.0444	0.89069	1.3677	579.55	-0.12456	237.35	0.087984	0.010156	19.677	0.050820	383.36	403.85	1.7225	0.78790	0.94117	146.45	29.827	11.067	0.012326
282.41	0.40441	1263.5	0.00079143	212.24	212.56	1.0449	0.89081	1.3680	579.11	-0.12404	237.06	0.087942	0.010143	19.739	0.050660	383.41	403.90	1.7224	0.78819	0.94166	146.45	29.797	11.071	0.012335
282.50	0.40571	1263.2	0.00079164	212.37	212.69	1.0454	0.89093	1.3683	578.67	-0.12352	236.78	0.087900	0.010130	19.801	0.050502	383.47	403.96	1.7224	0.78847	0.94215	146.44	29.768	11.074	0.012343
282.60	0.40702	1262.9	0.00079185	212.50	212.82	1.0458	0.89106	1.3686	578.23	-0.12301	236.50	0.087858	0.010117	19.863	0.050344	383.52	404.01	1.7224	0.78876	0.94263	146.43	29.738	11.078	0.012352
282.69	0.40832	1262.5	0.00079205	212.63	212.95	1.0463	0.89118	1.3689	577.79	-0.12249	236.21	0.087817	0.010104	19.925	0.050187	383.57	404.06	1.7223	0.78905	0.94312	146.42	29.709	11.082	0.012361
282.79	0.40962	1262.2	0.00079226	212.76	213.08	1.0467	0.89130	1.3692	577.36	-0.12197	235.93	0.087775	0.010091	19.988	0.050031	383.62	404.12	1.7223	0.78933	0.94361	146.41	29.680	11.085	0.012369
282.88	0.41092	1261.9	0.00079247	212.88	213.21	1.0472	0.89143	1.3695	576.92	-0.12145	235.65	0.087734	0.010078	20.050	0.049876	383.67	404.17	1.7222	0.78962	0.94409	146.41	29.651	11.089	0.012378
282.98	0.41222	1261.6	0.00079267	213.01	213.34	1.0476	0.89155	1.3698	576.49	-0.12093	235.37	0.087693	0.010065	20.112	0.049722	383.72	404.22	1.7222	0.78990	0.94457	146.40	29.622	11.092	0.012386
283.07	0.41352	1261.2	0.00079288	213.14	213.47	1.0481	0.89167	1.3701	576.05	-0.12041	235.10	0.087652	0.010052	20.174	0.049569	383.78	404.27	1.7221	0.79018	0.94506	146.39	29.593	11.096	0.012395
283.17	0.41482	1260.9	0.00079308	213.27	213.60	1.0485	0.89179	1.3704	575.62	-0.11990	234.82	0.087611	0.010039	20.236	0.049417	383.83	404.33	1.7221	0.79047	0.94554	146.38	29.564	11.100	0.012403
283.26	0.41612	1260.6	0.00079329	213.40	213.73	1.0490	0.89191	1.3707	575.19	-0.11938	234.55	0.087570	0.010026	20.298	0.049266	383.88	404.38	1.7221	0.79075	0.94602	146.37	29.536	11.103	0.012412
283.35	0.41742	1260.3	0.00079349	213.52	213.86	1.0494	0.89203	1.3710	574.76	-0.11886	234.27	0.087529	0.010014	20.360	0.049116	383.93	404.43	1.7220	0.79103	0.94650	146.36	29.507	11.107	0.012420
283.45	0.41872	1259.9	0.00079369	213.65	213.98	1.0499	0.89216	1.3713	574.33	-0.11834	234.00	0.087488	0.010001	20.422	0.048966	383.98	404.48	1.7220	0.79131	0.94699	146.36	29.479	11.110	0.012429
283.54	0.42002	1259.6	0.00079390	213.78	214.11	1.0503	0.89228	1.3716	573.90	-0.11782	233.72	0.087448	0.0099881	20.484	0.048818	384.03	404.53	1.7219	0.79159	0.94747	146.35	29.451	11.114	0.012437
283.63	0.42132	1259.3	0.00079410	213.90	214.24	1.0508	0.89240	1.3719	573.47	-0.11731	233.45	0.087407	0.0099754	20.547	0.048670	384.08	404.59	1.7219	0.79187	0.94795	146.34	29.423	11.117	0.012446
283.72	0.42262	1259.0	0.00079430	214.03	214.37	1.0512	0.89252	1.3722	573.05	-0.11679	233.18	0.087367	0.0099628	20.609	0.048523	384.13	404.64	1.7219	0.79215	0.94843	146.33	29.395	11.121	0.012454
283.82	0.42392	1258.6	0.00079451	214.16	214.49	1.0517	0.89264	1.3725	572.62	-0.11627	232.91	0.087327	0.0099501	20.671	0.048377	384.18	404.69	1.7218	0.79243	0.94890	146.32	29.367	11.124	0.012463
283.91	0.42523	1258.3	0.00079471	214.28	214.62	1.0521	0.89276	1.3728	572.20	-0.11575	232.64	0.087286	0.0099375	20.733	0.048232	384.23	404.74	1.7218	0.79271	0.94938	146.31	29.339	11.128	0.012471
284.00	0.42653	1258.0	0.00079491	214.41	214.75	1.0526	0.89288	1.3731	571.77	-0.11524	232.38	0.087246	0.0099250	20.795	0.048088	384.28	404.79	1.7217	0.79299	0.94986	146.30	29.312	11.131	0.012479
284.09	0.42783	1257.7	0.00079511	214.53	214.87	1.0530	0.89300	1.3734	571.35	-0.11472	232.11	0.087206	0.0099124	20.857	0.047945	384.33	404.84	1.7217	0.79326	0.95034	146.30	29.284	11.135	0.012488
284.18	0.42913	1257.4	0.00079532	214.66	215.00	1.0534	0.89311	1.3737	570.93	-0.11420	231.84	0.087166	0.0098999	20.919	0.047802	384.38	404.89	1.7217	0.79354	0.95082	146.29	29.257	11.138	0.012496
284.28	0.43043	1257.0	0.00079552	214.78	215.13	1.0539	0.89323	1.3740	570.51	-0.11369	231.58	0.087127	0.0098874	20.982	0.047661	384.43	404.94	1.7216	0.79382	0.95129	146.28	29.229	11.142	0.012505
284.37	0.43173	1256.7	0.00079572	214.91	215.25	1.0543	0.89335	1.3743	570.09	-0.11317	231.32	0.087087	0.0098750	21.044	0.047520	384.48	405.00	1.7216	0.79409	0.95177	146.27	29.202	11.145	0.012513
284.46	0.43303	1256.4	0.00079592	215.03	215.38	1.0548	0.89347	1.3746	569.67	-0.11265	231.05	0.087047	0.0098626	21.106	0.047380	384.53	405.05	1.7215	0.79437	0.95224	146.26	29.175	11.149	0.012521
284.55	0.43433	1256.1	0.00079612	215.16	215.50	1.0552	0.89359	1.3748	569.25	-0.11214	230.79	0.087008	0.0098502	21.168	0.047241	384.58	405.10	1.7215	0.79464	0.95272	146.25	29.148	11.152	0.012529
284.64	0.43563	1255.8	0.00079632	215.28	215.63	1.0556	0.89371	1.3751	568.84	-0.11162	230.53	0.086968	0.0098379	21.230	0.047102	384.63	405.15	1.7215	0.79492	0.95319	146.24	29.122	11.156	0.012538
284.73	0.43693	1255.5	0.00079652	215.40	215.75	1.0561	0.89382	1.3754	568.42	-0.11110	230.27	0.086929	0.0098256	21.293	0.046965	384.68	405.20	1.7214	0.79519	0.95367	146.23	29.095	11.159	0.012546
284.82	0.43823	1255.1	0.00079672	215.53	215.87	1.0565	0.89394	1.3757	568.01	-0.11059	230.01	0.086890	0.0098133	21.355	0.046828	384.73	405.25	1.7214	0.79546	0.95414	146.23	29.068	11.163	0.012554
284.91	0.43953	1254.8	0.00079692	215.65	216.00	1.0569	0.89406	1.3760	567.59	-0.11007	229.75	0.086851	0.0098010	21.417	0.046692	384.77	405.30	1.7213	0.79573	0.95461	146.22	29.042	11.166	0.012562
285.00	0.44083	1254.5	0.00079712	215.77	216.12	1.0574	0.89418	1.3763	567.18	-0.10956	229.49	0.086812	0.0097888	21.479	0.046557	384.82	405.35	1.7213	0.79601	0.95509	146.21	29.015	11.169	0.012571
285.09	0.44213	1254.2	0.00079732	215.89	216.25	1.0578	0.89429	1.3766	566.77	-0.10904	229.24	0.086773	0.0097766	21.542	0.046422	384.87	405.40	1.7213	0.79628	0.95556	146.20	28.989	11.173	0.012579
285.18	0.44344	1253.9	0.00079752	216.02	216.37	1.0582	0.89441	1.3769	566.36	-0.10853	228.98	0.086734	0.0097644	21.604	0.046288	384.92	405.44	1.7212	0.79655	0.95603	146.19	28.963	11.176	0.012587
285.27	0.44474	1253.6	0.00079772	216.14	216.49	1.0586	0.89453	1.3772	565.95	-0.10801	228.73	0.086695	0.0097523	21.666	0.046155	384.97	405.49	1.7212	0.79682	0.95650	146.18	28.937	11.180	0.012595
285.36	0.44604	1253.3	0.00079792	216.26	216.61	1.0591	0.89464	1.3775	565.54	-0.10749	228.47	0.086656	0.0097402	21.728	0.046023	385.02	405.54	1.7211	0.79709	0.95697	146.17	28.911	11.183	0.012603
285.45	0.44734	1253.0	0.00079811	216.38	216.74	1.0595	0.89476	1.3778	565.13	-0.10698	228.22	0.086618	0.0097281	21.791	0.045892	385.06	405.59	1.7211	0.79736	0.95744	146.16	28.885	11.186	0.012612
285.53	0.44864	1252.6	0.00079831	216.50	216.86	1.0599	0.89487	1.3781	564.72	-0.10646	227.97	0.086579	0.0097161	21.853	0.045761	385.11	405.64	1.7211	0.79762	0.95791	146.15	28.859	11.190	0.012620
285.62	0.44994	1252.3	0.00079851	216.62	216.98	1.0603	0.89499	1.3784	564.31	-0.10595	227.72	0.086541	0.0097041	21.915	0.045631	385.16	405.69	1.7210	0.79789	0.95838	146.14	28.834	11.193	0.012628
285.71	0.45124	1252.0	0.00079871	216.74	217.10	1.0608	0.89510	1.3786	563.91	-0.10543	227.47	0.086503	0.0096921	21.977	0.045501	385.21	405.74	1.7210	0.79816	0.95885	146.13	28.808	11.197	0.012636
285.80	0.45254	1251.7	0.00079891	216.86	217.22	1.0612	0.89522	1.3789	563.50	-0.10492	227.22	0.086464	0.0096801	22.040	0.045373	385.25	405.79	1.7210	0.79843	0.95932	146.12	28.783	11.200	0.012644
285.89	0.45384	1251.4	0.00079910	216.98	217.35	1.0616	0.89533	1.3792	563.10	-0.10440	226.97	0.086426	0.0096682	22.102	0.045245	385.30	405.84	1.7209	0.79869	0.95979	146.11	28.758	11.203	0.012652
285.97	0.45514	1251.1	0.00079930	217.10	217.47	1.0620	0.89545	1.3795	562.70	-0.10389	226.72	0.086388	0.0096563	22.164	0.045118	385.35	405.88	1.7209	0.79896	0.96025	146.11	28.732	11.207	0.012660
286.06	0.45644	1250.8	0.00079950	217.22	217.59	1.0624	0.89556	1.3798	562.29	-0.10337	226.47	0.086350	0.0096445	22.227	0.044991	385.40	405.93	1.7208	0.79923	0.96072	146.10	28.707	11.210	0.012668
286.15	0.45774	1250.5	0.00079969	217.34	217.71	1.0629	0.89568	1.3801	561.89	-0.10286	226.23	0.086312	0.0096326	22.289	0.044865	385.44	405.98	1.7208	0.79949	0.96119	146.09	28.682	11.213	0.012676
286.24	0.45904	1250.2	0.00079989	217.46	217.83	1.0633	0.89579	1.3804	561.49	-0.10234	225.98	0.086275	0.0096208	22.351	0.044740	385.49	406.03	1.7208	0.79976	0.96165	146.08	28.657	11.217	0.012684
286.32	0.46034	1249.9	0.00080008	217.58	217.95	1.0637	0.89591	1.3807	561.09	-0.10183	225.74	0.086237	0.0096090	22.413	0.044616	385.54	406.07	1.7207	0.80002	0.96212	146.07	28.632	11.220	0.012692
286.41	0.46165	1249.6	0.00080028	217.70	218.07	1.0641	0.89602	1.3810	560.69	-0.10131	225.49	0.086199	0.0095973	22.476	0.044492	385.58	406.12	1.7207	0.80028	0.96258	146.06	28.608	11.224	0.012700
286.50	0.46295	1249.3	0.00080047	217.82	218.19	1.0645	0.89613	1.3813	560.29	-0.10080	225.25	0.086162	0.0095855	22.538	0.044369	385.63	406.17	1.7207	0.80055	0.96305	146.05	28.583	11.227	0.012708
286.58	0.46425	1249.0	0.00080067	217.94	218.31	1.0649	0.89625	1.3815	559.90	-0.10028	225.01	0.086124	0.0095738	22.601	0.044247	385.68	406.22	1.7206	0.80081	0.96351	146.04	28.558	11.230	0.012716
286.67	0.46555	1248.7	0.00080086	218.05	218.43	1.0653	0.89636	1.3818	559.50	-0.099767	224.77	0.086087	0.0095622	22.663	0.044125	385.72	406.26	1.7206	0.80107	0.96398	146.03	28.534	11.233	0.012724
286.75	0.46685	1248.3	0.00080106	218.17	218.54	1.0658	0.89647	1.3821	559.11	-0.099253	224.53	0.086050	0.0095505	22.725	0.044004	385.77	406.31	1.7206	0.80133	0.96444	146.02	28.510	11.237	0.012732
286.84	0.46815	1248.0	0.00080125	218.29	218.66	1.0662	0.89659	1.3824	558.71	-0.098738	224.29	0.086012	0.0095389	22.788	0.043883	385.81	406.36	1.7205	0.80159	0.96490	146.01	28.485	11.240	0.012740
286.93	0.46945	1247.7	0.00080145	218.41	218.78	1.0666	0.89670	1.3827	558.32	-0.098223	224.05	0.085975	0.0095273	22.850	0.043764	385.86	406.41	1.7205	0.80185	0.96537	146.00	28.461	11.243	0.012748
287.01	0.47075	1247.4	0.00080164	218.52	218.90	1.0670	0.89681	1.3830	557.92	-0.097709	223.81	0.085938	0.0095158	22.912	0.043644	385.91	406.45	1.7205	0.80211	0.96583	145.99	28.437	11.247	0.012756
287.10	0.47205	1247.1	0.00080184	218.64	219.02	1.0674	0.89692	1.3833	557.53	-0.097194	223.57	0.085901	0.0095042	22.975	0.043526	385.95	406.50	1.7204	0.80237	0.96629	145.98	28.413	11.250	0.012764
287.18	0.47335	1246.8	0.00080203	218.76	219.14	1.0678	0.89703	1.3836	557.14	-0.096680	223.34	0.085864	0.0094927	23.037	0.043408	386.00	406.54	1.7204	0.80263	0.96675	145.97	28.389	11.253	0.012772
287.27	0.47465	1246.5	0.00080222	218.87	219.25	1.0682	0.89715	1.3838	556.75	-0.096166	223.10	0.085828	0.0094812	23.100	0.043291	386.04	406.59	1.7203	0.80289	0.96721	145.96	28.366	11.257	0.012779
287.35	0.47595	1246.2	0.00080242	218.99	219.37	1.0686	0.89726	1.3841	556.36	-0.095651	222.87	0.085791	0.0094698	23.162	0.043174	386.09	406.64	1.7203	0.80315	0.96767	145.95	28.342	11.260	0.012787
287.43	0.47725	1245.9	0.00080261	219.11	219.49	1.0690	0.89737	1.3844	555.97	-0.095137	222.63	0.085754	0.0094583	23.224	0.043058	386.13	406.68	1.7203	0.80341	0.96814	145.94	28.318	11.263	0.012795
287.52	0.47855	1245.6	0.00080280	219.22	219.61	1.0694	0.89748	1.3847	555.58	-0.094623	222.40	0.085718	0.0094469	23.287	0.042943	386.18	406.73	1.7202	0.80367	0.96860	145.93	28.295	11.266	0.012803
287.60	0.47986	1245.3	0.00080299	219.34	219.72	1.0698	0.89759	1.3850	555.19	-0.094109	222.16	0.085681	0.0094356	23.349	0.042828	386.22	406.78	1.7202	0.80392	0.96905	145.92	28.271	11.270	0.012811
287.69	0.48116	1245.0	0.00080319	219.45	219.84	1.0702	0.89770	1.3853	554.81	-0.093594	221.93	0.085645	0.0094242	23.412	0.042714	386.27	406.82	1.7202	0.80418	0.96951	145.91	28.248	11.273	0.012818
287.77	0.48246	1244.7	0.00080338	219.57	219.95	1.0706	0.89781	1.3856	554.42	-0.093080	221.70	0.085609	0.0094129	23.474	0.042600	386.31	406.87	1.7201	0.80444	0.96997	145.90	28.225	11.276	0.012826
287.85	0.48376	1244.4	0.00080357	219.68	220.07	1.0710	0.89792	1.3859	554.04	-0.092566	221.47	0.085572	0.0094016	23.537	0.042487	386.36	406.91	1.7201	0.80469	0.97043	145.89	28.202	11.279	0.012834
287.94	0.48506	1244.1	0.00080376	219.80	220.19	1.0714	0.89803	1.3861	553.65	-0.092052	221.24	0.085536	0.0093903	23.599	0.042374	386.40	406.96	1.7201	0.80495	0.97089	145.88	28.178	11.283	0.012842
288.02	0.48636	1243.9	0.00080395	219.91	220.30	1.0718	0.89814	1.3864	553.27	-0.091538	221.01	0.085500	0.0093791	23.662	0.042262	386.45	407.00	1.7200	0.80520	0.97135	145.87	28.155	11.286	0.012850
288.10	0.48766	1243.6	0.00080414	220.03	220.42	1.0722	0.89825	1.3867	552.88	-0.091024	220.78	0.085464	0.0093679	23.724	0.042151	386.49	407.05	1.7200	0.80546	0.97180	145.86	28.133	11.289	0.012857
288.19	0.48896	1243.3	0.00080434	220.14	220.53	1.0726	0.89836	1.3870	552.50	-0.090510	220.56	0.085428	0.0093567	23.787	0.042040	386.54	407.09	1.7200	0.80571	0.97226	145.85	28.110	11.292	0.012865
288.27	0.49026	1243.0	0.00080453	220.25	220.65	1.0730	0.89847	1.3873	552.12	-0.089996	220.33	0.085392	0.0093455	23.849	0.041930	386.58	407.14	1.7199	0.80596	0.97272	145.84	28.087	11.296	0.012873
288.35	0.49156	1242.7	0.00080472	220.37	220.76	1.0734	0.89858	1.3876	551.74	-0.089482	220.10	0.085356	0.0093343	23.912	0.041821	386.63	407.18	1.7199	0.80622	0.97317	145.83	28.064	11.299	0.012880
288.44	0.49286	1242.4	0.00080491	220.48	220.88	1.0738	0.89869	1.3878	551.36	-0.088968	219.88	0.085321	0.0093232	23.974	0.041711	386.67	407.23	1.7199	0.80647	0.97363	145.82	28.042	11.302	0.012888
288.52	0.49416	1242.1	0.00080510	220.59	220.99	1.0742	0.89880	1.3881	550.98	-0.088454	219.65	0.085285	0.0093121	24.037	0.041603	386.71	407.27	1.7198	0.80672	0.97408	145.81	28.019	11.305	0.012896
288.60	0.49546	1241.8	0.00080529	220.71	221.11	1.0746	0.89891	1.3884	550.60	-0.087940	219.43	0.085250	0.0093010	24.099	0.041495	386.76	407.32	1.7198	0.80697	0.97454	145.80	27.997	11.308	0.012903
288.68	0.49676	1241.5	0.00080548	220.82	221.22	1.0750	0.89902	1.3887	550.23	-0.087426	219.20	0.085214	0.0092900	24.162	0.041388	386.80	407.36	1.7198	0.80722	0.97499	145.79	27.975	11.312	0.012911
288.76	0.49807	1241.2	0.00080567	220.93	221.33	1.0754	0.89913	1.3890	549.85	-0.086912	218.98	0.085179	0.0092790	24.224	0.041281	386.84	407.41	1.7197	0.80747	0.97545	145.78	27.952	11.315	0.012919
288.84	0.49937	1240.9	0.00080586	221.04	221.45	1.0758	0.89923	1.3893	549.47	-0.086398	218.76	0.085143	0.0092680	24.287	0.041174	386.89	407.45	1.7197	0.80772	0.97590	145.77	27.930	11.318	0.012926
288.93	0.50067	1240.6	0.00080605	221.16	221.56	1.0761	0.89934	1.3896	549.10	-0.085884	218.54	0.085108	0.0092570	24.350	0.041069	386.93	407.49	1.7197	0.80797	0.97636	145.76	27.908	11.321	0.012934
289.01	0.50197	1240.3	0.00080623	221.27	221.67	1.0765	0.89945	1.3898	548.72	-0.085370	218.32	0.085073	0.0092461	24.412	0.040963	386.98	407.54	1.7196	0.80822	0.97681	145.75	27.886	11.324	0.012942
289.09	0.50327	1240.0	0.00080642	221.38	221.79	1.0769	0.89956	1.3901	548.35	-0.084856	218.10	0.085038	0.0092351	24.475	0.040859	387.02	407.58	1.7196	0.80847	0.97726	145.74	27.864	11.327	0.012949
289.17	0.50457	1239.8	0.00080661	221.49	221.90	1.0773	0.89967	1.3904	547.97	-0.084342	217.88	0.085003	0.0092242	24.537	0.040754	387.06	407.63	1.7196	0.80872	0.97772	145.73	27.842	11.331	0.012957
289.25	0.50587	1239.5	0.00080680	221.60	222.01	1.0777	0.89977	1.3907	547.60	-0.083828	217.66	0.084968	0.0092133	24.600	0.040651	387.10	407.67	1.7195	0.80897	0.97817	145.71	27.821	11.334	0.012964
289.33	0.50717	1239.2	0.00080699	221.71	222.12	1.0781	0.89988	1.3910	547.23	-0.083314	217.44	0.084933	0.0092025	24.662	0.040547	387.15	407.71	1.7195	0.80922	0.97862	145.70	27.799	11.337	0.012972
289.41	0.50847	1238.9	0.00080718	221.83	222.24	1.0785	0.89999	1.3913	546.86	-0.082800	217.22	0.084898	0.0091917	24.725	0.040445	387.19	407.76	1.7195	0.80946	0.97907	145.69	27.777	11.340	0.012980
289.49	0.50977	1238.6	0.00080736	221.94	222.35	1.0788	0.90009	1.3915	546.49	-0.082286	217.00	0.084863	0.0091809	24.788	0.040343	387.23	407.80	1.7194	0.80971	0.97952	145.68	27.756	11.343	0.012987
289.57	0.51107	1238.3	0.00080755	222.05	222.46	1.0792	0.90020	1.3918	546.12	-0.081772	216.79	0.084829	0.0091701	24.850	0.040241	387.28	407.84	1.7194	0.80996	0.97997	145.67	27.734	11.346	0.012995
289.65	0.51237	1238.0	0.00080774	222.16	222.57	1.0796	0.90031	1.3921	545.75	-0.081258	216.57	0.084794	0.0091593	24.913	0.040140	387.32	407.89	1.7194	0.81020	0.98042	145.66	27.713	11.350	0.013002
289.73	0.51367	1237.7	0.00080793	222.27	222.68	1.0800	0.90041	1.3924	545.38	-0.080744	216.36	0.084759	0.0091486	24.976	0.040039	387.36	407.93	1.7194	0.81045	0.98087	145.65	27.692	11.353	0.013010
289.81	0.51498	1237.4	0.00080811	222.38	222.79	1.0804	0.90052	1.3927	545.01	-0.080230	216.14	0.084725	0.0091379	25.038	0.039939	387.40	407.97	1.7193	0.81070	0.98132	145.64	27.670	11.356	0.013017
289.89	0.51628	1237.2	0.00080830	222.49	222.90	1.0807	0.90063	1.3929	544.65	-0.079716	215.93	0.084691	0.0091272	25.101	0.039839	387.45	408.01	1.7193	0.81094	0.98177	145.63	27.649	11.359	0.013025
289.97	0.51758	1236.9	0.00080849	222.60	223.02	1.0811	0.90073	1.3932	544.28	-0.079202	215.72	0.084656	0.0091165	25.164	0.039740	387.49	408.06	1.7193	0.81119	0.98222	145.62	27.628	11.362	0.013032
290.05	0.51888	1236.6	0.00080867	222.71	223.13	1.0815	0.90084	1.3935	543.92	-0.078688	215.50	0.084622	0.0091059	25.226	0.039641	387.53	408.10	1.7192	0.81143	0.98267	145.61	27.607	11.365	0.013040
290.13	0.52018	1236.3	0.00080886	222.82	223.24	1.0819	0.90094	1.3938	543.55	-0.078174	215.29	0.084588	0.0090952	25.289	0.039543	387.57	408.14	1.7192	0.81167	0.98312	145.60	27.586	11.368	0.013047
290.21	0.52148	1236.0	0.00080905	222.92	223.35	1.0823	0.90105	1.3941	543.19	-0.077660	215.08	0.084554	0.0090846	25.352	0.039445	387.61	408.18	1.7192	0.81192	0.98357	145.59	27.565	11.371	0.013054
290.29	0.52278	1235.7	0.00080923	223.03	223.46	1.0826	0.90116	1.3944	542.82	-0.077146	214.87	0.084520	0.0090740	25.415	0.039348	387.66	408.23	1.7191	0.81216	0.98402	145.58	27.545	11.375	0.013062
290.37	0.52408	1235.5	0.00080942	223.14	223.57	1.0830	0.90126	1.3946	542.46	-0.076632	214.66	0.084486	0.0090635	25.477	0.039251	387.70	408.27	1.7191	0.81240	0.98446	145.56	27.524	11.378	0.013069
290.44	0.52538	1235.2	0.00080960	223.25	223.68	1.0834	0.90137	1.3949	542.10	-0.076118	214.45	0.084452	0.0090530	25.540	0.039154	387.74	408.31	1.7191	0.81264	0.98491	145.55	27.503	11.381	0.013077
290.52	0.52668	1234.9	0.00080979	223.36	223.79	1.0837	0.90147	1.3952	541.74	-0.075604	214.24	0.084418	0.0090424	25.603	0.039058	387.78	408.35	1.7190	0.81289	0.98536	145.54	27.483	11.384	0.013084
290.60	0.52798	1234.6	0.00080997	223.47	223.89	1.0841	0.90157	1.3955	541.37	-0.075090	214.03	0.084384	0.0090320	25.665	0.038963	387.82	408.39	1.7190	0.81313	0.98581	145.53	27.462	11.387	0.013092
290.68	0.52928	1234.3	0.00081016	223.58	224.00	1.0845	0.90168	1.3958	541.01	-0.074575	213.83	0.084350	0.0090215	25.728	0.038868	387.86	408.44	1.7190	0.81337	0.98625	145.52	27.442	11.390	0.013099
290.76	0.53058	1234.0	0.00081034	223.68	224.11	1.0849	0.90178	1.3960	540.65	-0.074061	213.62	0.084317	0.0090110	25.791	0.038773	387.91	408.48	1.7190	0.81361	0.98670	145.51	27.422	11.393	0.013106
290.83	0.53188	1233.8	0.00081053	223.79	224.22	1.0852	0.90189	1.3963	540.30	-0.073547	213.41	0.084283	0.0090006	25.854	0.038679	387.95	408.52	1.7189	0.81385	0.98714	145.50	27.401	11.396	0.013114
290.91	0.53319	1233.5	0.00081071	223.90	224.33	1.0856	0.90199	1.3966	539.94	-0.073033	213.21	0.084249	0.0089902	25.917	0.038585	387.99	408.56	1.7189	0.81409	0.98759	145.49	27.381	11.399	0.013121
290.99	0.53449	1233.2	0.00081090	224.01	224.44	1.0860	0.90210	1.3969	539.58	-0.072518	213.00	0.084216	0.0089798	25.979	0.038492	388.03	408.60	1.7189	0.81433	0.98803	145.48	27.361	11.402	0.013128
291.07	0.53579	1232.9	0.00081108	224.11	224.55	1.0863	0.90220	1.3972	539.22	-0.072004	212.80	0.084183	0.0089695	26.042	0.038399	388.07	408.64	1.7188	0.81457	0.98848	145.47	27.341	11.405	0.013136
291.14	0.53709	1232.6	0.00081127	224.22	224.65	1.0867	0.90230	1.3974	538.87	-0.071490	212.59	0.084149	0.0089591	26.105	0.038307	388.11	408.69	1.7188	0.81481	0.98892	145.45	27.321	11.408	0.013143
291.22	0.53839	1232.4	0.00081145	224.33	224.76	1.0871	0.90241	1.3977	538.51	-0.070975	212.39	0.084116	0.0089488	26.168	0.038215	388.15	408.73	1.7188	0.81504	0.98937	145.44	27.301	11.411	0.013150
291.30	0.53969	1232.1	0.00081163	224.43	224.87	1.0874	0.90251	1.3980	538.16	-0.070461	212.19	0.084083	0.0089385	26.231	0.038123	388.19	408.77	1.7187	0.81528	0.98981	145.43	27.281	11.414	0.013158
291.38	0.54099	1231.8	0.00081182	224.54	224.98	1.0878	0.90261	1.3983	537.80	-0.069946	211.99	0.084050	0.0089283	26.293	0.038032	388.23	408.81	1.7187	0.81552	0.99026	145.42	27.261	11.418	0.013165
291.45	0.54229	1231.5	0.00081200	224.65	225.09	1.0882	0.90272	1.3986	537.45	-0.069432	211.78	0.084016	0.0089180	26.356	0.037942	388.27	408.85	1.7187	0.81576	0.99070	145.41	27.242	11.421	0.013172
291.53	0.54359	1231.2	0.00081218	224.75	225.19	1.0885	0.90282	1.3988	537.09	-0.068917	211.58	0.083983	0.0089078	26.419	0.037851	388.31	408.89	1.7187	0.81599	0.99114	145.40	27.222	11.424	0.013180
291.61	0.54489	1231.0	0.00081237	224.86	225.30	1.0889	0.90292	1.3991	536.74	-0.068403	211.38	0.083950	0.0088976	26.482	0.037761	388.35	408.93	1.7186	0.81623	0.99159	145.39	27.202	11.427	0.013187
291.68	0.54619	1230.7	0.00081255	224.96	225.41	1.0893	0.90302	1.3994	536.39	-0.067888	211.18	0.083918	0.0088874	26.545	0.037672	388.39	408.97	1.7186	0.81647	0.99203	145.38	27.183	11.430	0.013194
291.76	0.54749	1230.4	0.00081273	225.07	225.51	1.0896	0.90313	1.3997	536.04	-0.067373	210.98	0.083885	0.0088772	26.608	0.037583	388.44	409.01	1.7186	0.81670	0.99247	145.36	27.163	11.433	0.013201
291.83	0.54879	1230.1	0.00081291	225.17	225.62	1.0900	0.90323	1.4000	535.69	-0.066859	210.78	0.083852	0.0088670	26.671	0.037494	388.48	409.05	1.7185	0.81694	0.99291	145.35	27.144	11.436	0.013209
291.91	0.55009	1229.9	0.00081310	225.28	225.73	1.0903	0.90333	1.4002	535.34	-0.066344	210.58	0.083819	0.0088569	26.734	0.037406	388.52	409.09	1.7185	0.81717	0.99336	145.34	27.125	11.439	0.013216
291.99	0.55140	1229.6	0.00081328	225.38	225.83	1.0907	0.90343	1.4005	534.99	-0.065829	210.39	0.083787	0.0088468	26.797	0.037318	388.56	409.13	1.7185	0.81741	0.99380	145.33	27.105	11.442	0.013223
292.06	0.55270	1229.3	0.00081346	225.49	225.94	1.0911	0.90353	1.4008	534.64	-0.065314	210.19	0.083754	0.0088367	26.859	0.037231	388.60	409.17	1.7185	0.81764	0.99424	145.32	27.086	11.445	0.013230
292.14	0.55400	1229.0	0.00081364	225.59	226.04	1.0914	0.90364	1.4011	534.29	-0.064799	209.99	0.083721	0.0088266	26.922	0.037144	388.63	409.21	1.7184	0.81788	0.99468	145.31	27.067	11.448	0.013237
292.21	0.55530	1228.8	0.00081383	225.70	226.15	1.0918	0.90374	1.4014	533.94	-0.064284	209.80	0.083689	0.0088166	26.985	0.037057	388.67	409.25	1.7184	0.81811	0.99512	145.30	27.048	11.451	0.013245
292.29	0.55660	1228.5	0.00081401	225.80	226.25	1.0921	0.90384	1.4016	533.60	-0.063769	209.60	0.083656	0.0088066	27.048	0.036971	388.71	409.29	1.7184	0.81834	0.99556	145.28	27.029	11.454	0.013252
292.36	0.55790	1228.2	0.00081419	225.91	226.36	1.0925	0.90394	1.4019	533.25	-0.063254	209.41	0.083624	0.0087966	27.111	0.036885	388.75	409.33	1.7183	0.81858	0.99600	145.27	27.010	11.457	0.013259
292.44	0.55920	1227.9	0.00081437	226.01	226.47	1.0929	0.90404	1.4022	532.90	-0.062739	209.21	0.083592	0.0087866	27.174	0.036800	388.79	409.37	1.7183	0.81881	0.99644	145.26	26.991	11.460	0.013266
292.51	0.56050	1227.7	0.00081455	226.11	226.57	1.0932	0.90414	1.4025	532.56	-0.062224	209.02	0.083560	0.0087766	27.237	0.036714	388.83	409.41	1.7183	0.81904	0.99688	145.25	26.972	11.463	0.013273
292.59	0.56180	1227.4	0.00081473	226.22	226.67	1.0936	0.90424	1.4027	532.21	-0.061709	208.82	0.083527	0.0087666	27.300	0.036630	388.87	409.45	1.7183	0.81927	0.99732	145.24	26.954	11.466	0.013280
292.66	0.56310	1227.1	0.00081491	226.32	226.78	1.0939	0.90434	1.4030	531.87	-0.061193	208.63	0.083495	0.0087567	27.363	0.036545	388.91	409.49	1.7182	0.81950	0.99776	145.23	26.935	11.469	0.013288
292.73	0.56440	1226.9	0.00081509	226.42	226.88	1.0943	0.90444	1.4033	531.53	-0.060678	208.44	0.083463	0.0087468	27.426	0.036461	388.95	409.53	1.7182	0.81974	0.99820	145.21	26.916	11.472	0.013295
292.81	0.56570	1226.6	0.00081527	226.53	226.99	1.0946	0.90454	1.4036	531.18	-0.060163	208.25	0.083431	0.0087369	27.489	0.036378	388.99	409.57	1.7182	0.81997	0.99864	145.20	26.898	11.475	0.013302
292.88	0.56700	1226.3	0.00081545	226.63	227.09	1.0950	0.90464	1.4039	530.84	-0.059647	208.05	0.083399	0.0087270	27.552	0.036295	389.03	409.61	1.7181	0.82020	0.99908	145.19	26.879	11.478	0.013309
292.96	0.56830	1226.0	0.00081563	226.73	227.20	1.0953	0.90474	1.4041	530.50	-0.059132	207.86	0.083367	0.0087172	27.615	0.036212	389.07	409.65	1.7181	0.82043	0.99951	145.18	26.861	11.481	0.013316
293.03	0.56961	1225.8	0.00081581	226.84	227.30	1.0957	0.90484	1.4044	530.16	-0.058616	207.67	0.083336	0.0087074	27.678	0.036129	389.11	409.69	1.7181	0.82066	0.99995	145.17	26.842	11.484	0.013323
293.10	0.57091	1225.5	0.00081599	226.94	227.40	1.0960	0.90494	1.4047	529.82	-0.058100	207.48	0.083304	0.0086975	27.741	0.036047	389.14	409.72	1.7181	0.82089	1.0004	145.16	26.824	11.486	0.013330
293.18	0.57221	1225.2	0.00081617	227.04	227.51	1.0964	0.90504	1.4050	529.48	-0.057585	207.29	0.083272	0.0086878	27.805	0.035965	389.18	409.76	1.7180	0.82112	1.0008	145.14	26.806	11.489	0.013337
293.25	0.57351	1225.0	0.00081635	227.14	227.61	1.0967	0.90514	1.4052	529.14	-0.057069	207.10	0.083240	0.0086780	27.868	0.035884	389.22	409.80	1.7180	0.82134	1.0013	145.13	26.788	11.492	0.013344
293.33	0.57481	1224.7	0.00081653	227.24	227.71	1.0971	0.90524	1.4055	528.80	-0.056553	206.92	0.083209	0.0086682	27.931	0.035803	389.26	409.84	1.7180	0.82157	1.0017	145.12	26.770	11.495	0.013351
293.40	0.57611	1224.4	0.00081671	227.35	227.82	1.0974	0.90534	1.4058	528.46	-0.056037	206.73	0.083177	0.0086585	27.994	0.035722	389.30	409.88	1.7179	0.82180	1.0021	145.11	26.751	11.498	0.013359
293.47	0.57741	1224.2	0.00081689	227.45	227.92	1.0978	0.90544	1.4061	528.12	-0.055521	206.54	0.083146	0.0086488	28.057	0.035642	389.34	409.92	1.7179	0.82203	1.0026	145.10	26.733	11.501	0.013366
293.54	0.57871	1223.9	0.00081707	227.55	228.02	1.0981	0.90554	1.4063	527.79	-0.055005	206.35	0.083114	0.0086391	28.120	0.035562	389.38	409.96	1.7179	0.82226	1.0030	145.09	26.715	11.504	0.013373
293.62	0.58001	1223.6	0.00081725	227.65	228.13	1.0985	0.90564	1.4066	527.45	-0.054489	206.17	0.083083	0.0086294	28.183	0.035482	389.41	409.99	1.7179	0.82248	1.0034	145.07	26.698	11.507	0.013380
293.69	0.58131	1223.4	0.00081743	227.75	228.23	1.0988	0.90574	1.4069	527.11	-0.053972	205.98	0.083052	0.0086197	28.246	0.035403	389.45	410.03	1.7178	0.82271	1.0039	145.06	26.680	11.510	0.013387
293.76	0.58261	1223.1	0.00081761	227.85	228.33	1.0991	0.90584	1.4072	526.78	-0.053456	205.80	0.083020	0.0086101	28.309	0.035324	389.49	410.07	1.7178	0.82294	1.0043	145.05	26.662	11.513	0.013394
293.84	0.58391	1222.8	0.00081778	227.95	228.43	1.0995	0.90594	1.4074	526.44	-0.052940	205.61	0.082989	0.0086004	28.373	0.035245	389.53	410.11	1.7178	0.82316	1.0048	145.04	26.644	11.516	0.013401
293.91	0.58521	1222.5	0.00081796	228.06	228.53	1.0998	0.90603	1.4077	526.11	-0.052423	205.43	0.082958	0.0085908	28.436	0.035167	389.57	410.15	1.7178	0.82339	1.0052	145.03	26.626	11.519	0.013408
293.98	0.58651	1222.3	0.00081814	228.16	228.64	1.1002	0.90613	1.4080	525.77	-0.051907	205.24	0.082927	0.0085812	28.499	0.035089	389.60	410.18	1.7177	0.82361	1.0056	145.01	26.609	11.522	0.013415
294.05	0.58782	1222.0	0.00081832	228.26	228.74	1.1005	0.90623	1.4083	525.44	-0.051390	205.06	0.082896	0.0085717	28.562	0.035011	389.64	410.22	1.7177	0.82384	1.0061	145.00	26.591	11.525	0.013422
294.12	0.58912	1221.8	0.00081850	228.36	228.84	1.1009	0.90633	1.4086	525.11	-0.050873	204.87	0.082865	0.0085621	28.625	0.034934	389.68	410.26	1.7177	0.82406	1.0065	144.99	26.574	11.528	0.013429
294.20	0.59042	1221.5	0.00081867	228.46	228.94	1.1012	0.90643	1.4088	524.78	-0.050356	204.69	0.082834	0.0085526	28.689	0.034857	389.72	410.30	1.7177	0.82429	1.0069	144.98	26.556	11.530	0.013436
294.27	0.59172	1221.2	0.00081885	228.56	229.04	1.1015	0.90652	1.4091	524.44	-0.049840	204.51	0.082803	0.0085431	28.752	0.034780	389.75	410.33	1.7176	0.82451	1.0074	144.97	26.539	11.533	0.013443
294.34	0.59302	1221.0	0.00081903	228.66	229.14	1.1019	0.90662	1.4094	524.11	-0.049323	204.33	0.082772	0.0085336	28.815	0.034704	389.79	410.37	1.7176	0.82474	1.0078	144.95	26.522	11.536	0.013450
294.41	0.59432	1220.7	0.00081921	228.76	229.24	1.1022	0.90672	1.4097	523.78	-0.048806	204.15	0.082741	0.0085241	28.878	0.034628	389.83	410.41	1.7176	0.82496	1.0082	144.94	26.504	11.539	0.013456
294.48	0.59562	1220.4	0.00081938	228.86	229.34	1.1026	0.90682	1.4099	523.45	-0.048288	203.97	0.082711	0.0085146	28.942	0.034552	389.87	410.45	1.7175	0.82518	1.0087	144.93	26.487	11.542	0.013463
294.55	0.59692	1220.2	0.00081956	228.96	229.44	1.1029	0.90691	1.4102	523.12	-0.047771	203.79	0.082680	0.0085052	29.005	0.034477	389.90	410.48	1.7175	0.82541	1.0091	144.92	26.470	11.545	0.013470
294.62	0.59822	1219.9	0.00081974	229.05	229.55	1.1032	0.90701	1.4105	522.79	-0.047254	203.61	0.082649	0.0084957	29.068	0.034402	389.94	410.52	1.7175	0.82563	1.0095	144.91	26.453	11.548	0.013477
294.70	0.59952	1219.6	0.00081991	229.15	229.65	1.1036	0.90711	1.4108	522.46	-0.046736	203.43	0.082619	0.0084863	29.131	0.034327	389.98	410.56	1.7175	0.82585	1.0100	144.89	26.436	11.551	0.013484
294.77	0.60082	1219.4	0.00082009	229.25	229.75	1.1039	0.90720	1.4110	522.14	-0.046219	203.25	0.082588	0.0084769	29.195	0.034253	390.01	410.59	1.7174	0.82607	1.0104	144.88	26.419	11.554	0.013491
294.84	0.60212	1219.1	0.00082027	229.35	229.85	1.1042	0.90730	1.4113	521.81	-0.045701	203.07	0.082558	0.0084676	29.258	0.034179	390.05	410.63	1.7174	0.82630	1.0108	144.87	26.402	11.556	0.013498
294.91	0.60342	1218.9	0.00082044	229.45	229.95	1.1046	0.90740	1.4116	521.48	-0.045184	202.89	0.082527	0.0084582	29.321	0.034105	390.09	410.67	1.7174	0.82652	1.0113	144.86	26.385	11.559	0.013505
294.98	0.60472	1218.6	0.00082062	229.55	230.05	1.1049	0.90749	1.4119	521.16	-0.044666	202.71	0.082497	0.0084489	29.385	0.034031	390.13	410.70	1.7174	0.82674	1.0117	144.84	26.368	11.562	0.013512
295.05	0.60603	1218.3	0.00082080	229.65	230.15	1.1052	0.90759	1.4121	520.83	-0.044148	202.54	0.082467	0.0084395	29.448	0.033958	390.16	410.74	1.7173	0.82696	1.0121	144.83	26.351	11.565	0.013519
295.12	0.60733	1218.1	0.00082097	229.75	230.24	1.1056	0.90769	1.4124	520.50	-0.043630	202.36	0.082436	0.0084302	29.511	0.033885	390.20	410.78	1.7173	0.82718	1.0126	144.82	26.334	11.568	0.013525
295.19	0.60863	1217.8	0.00082115	229.84	230.34	1.1059	0.90778	1.4127	520.18	-0.043112	202.18	0.082406	0.0084209	29.575	0.033813	390.23	410.81	1.7173	0.82740	1.0130	144.81	26.317	11.571	0.013532
295.26	0.60993	1217.5	0.00082132	229.94	230.44	1.1062	0.90788	1.4130	519.85	-0.042594	202.01	0.082376	0.0084117	29.638	0.033740	390.27	410.85	1.7173	0.82762	1.0134	144.80	26.301	11.574	0.013539
295.33	0.61123	1217.3	0.00082150	230.04	230.54	1.1066	0.90797	1.4132	519.53	-0.042076	201.83	0.082346	0.0084024	29.701	0.033668	390.31	410.89	1.7172	0.82784	1.0138	144.78	26.284	11.576	0.013546
295.40	0.61253	1217.0	0.00082167	230.14	230.64	1.1069	0.90807	1.4135	519.21	-0.041557	201.66	0.082316	0.0083932	29.765	0.033597	390.34	410.92	1.7172	0.82806	1.0143	144.77	26.268	11.579	0.013553
295.47	0.61383	1216.8	0.00082185	230.24	230.74	1.1072	0.90817	1.4138	518.88	-0.041039	201.48	0.082286	0.0083839	29.828	0.033525	390.38	410.96	1.7172	0.82828	1.0147	144.76	26.251	11.582	0.013560
295.54	0.61513	1216.5	0.00082202	230.33	230.84	1.1076	0.90826	1.4141	518.56	-0.040520	201.31	0.082256	0.0083747	29.892	0.033454	390.42	411.00	1.7172	0.82850	1.0151	144.75	26.235	11.585	0.013566
295.61	0.61643	1216.2	0.00082220	230.43	230.94	1.1079	0.90836	1.4143	518.24	-0.040001	201.13	0.082226	0.0083655	29.955	0.033383	390.45	411.03	1.7171	0.82872	1.0156	144.73	26.218	11.588	0.013573
295.68	0.61773	1216.0	0.00082237	230.53	231.04	1.1082	0.90845	1.4146	517.92	-0.039483	200.96	0.082196	0.0083564	30.019	0.033313	390.49	411.07	1.7171	0.82893	1.0160	144.72	26.202	11.591	0.013580
295.75	0.61903	1215.7	0.00082255	230.62	231.13	1.1086	0.90855	1.4149	517.60	-0.038964	200.79	0.082166	0.0083472	30.082	0.033243	390.53	411.10	1.7171	0.82915	1.0164	144.71	26.186	11.594	0.013587
295.82	0.62033	1215.5	0.00082272	230.72	231.23	1.1089	0.90864	1.4152	517.28	-0.038445	200.61	0.082136	0.0083381	30.145	0.033173	390.56	411.14	1.7171	0.82937	1.0169	144.70	26.169	11.596	0.013594
295.89	0.62163	1215.2	0.00082290	230.82	231.33	1.1092	0.90874	1.4154	516.96	-0.037926	200.44	0.082107	0.0083289	30.209	0.033103	390.60	411.17	1.7170	0.82959	1.0173	144.68	26.153	11.599	0.013600
295.96	0.62293	1215.0	0.00082307	230.91	231.43	1.1095	0.90883	1.4157	516.64	-0.037407	200.27	0.082077	0.0083198	30.272	0.033033	390.63	411.21	1.7170	0.82980	1.0177	144.67	26.137	11.602	0.013607
296.02	0.62424	1214.7	0.00082325	231.01	231.52	1.1099	0.90893	1.4160	516.32	-0.036887	200.10	0.082047	0.0083107	30.336	0.032964	390.67	411.25	1.7170	0.83002	1.0181	144.66	26.121	11.605	0.013614
296.09	0.62554	1214.4	0.00082342	231.11	231.62	1.1102	0.90902	1.4162	516.00	-0.036368	199.93	0.082018	0.0083017	30.399	0.032895	390.70	411.28	1.7170	0.83024	1.0186	144.65	26.105	11.608	0.013621
296.16	0.62684	1214.2	0.00082360	231.20	231.72	1.1105	0.90911	1.4165	515.68	-0.035848	199.76	0.081988	0.0082926	30.463	0.032827	390.74	411.32	1.7169	0.83045	1.0190	144.63	26.089	11.611	0.013628
296.23	0.62814	1213.9	0.00082377	231.30	231.82	1.1108	0.90921	1.4168	515.36	-0.035329	199.59	0.081959	0.0082836	30.526	0.032759	390.78	411.35	1.7169	0.83067	1.0194	144.62	26.073	11.613	0.013634
296.30	0.62944	1213.7	0.00082394	231.40	231.91	1.1112	0.90930	1.4171	515.05	-0.034809	199.42	0.081929	0.0082745	30.590	0.032691	390.81	411.39	1.7169	0.83088	1.0199	144.61	26.057	11.616	0.013641
296.37	0.63074	1213.4	0.00082412	231.49	232.01	1.1115	0.90940	1.4173	514.73	-0.034289	199.25	0.081900	0.0082655	30.653	0.032623	390.85	411.42	1.7169	0.83110	1.0203	144.60	26.041	11.619	0.013648
296.44	0.63204	1213.2	0.00082429	231.59	232.11	1.1118	0.90949	1.4176	514.41	-0.033769	199.08	0.081871	0.0082565	30.717	0.032555	390.88	411.46	1.7168	0.83131	1.0207	144.58	26.025	11.622	0.013654
296.50	0.63334	1212.9	0.00082446	231.68	232.20	1.1121	0.90959	1.4179	514.10	-0.033249	198.91	0.081841	0.0082476	30.781	0.032488	390.92	411.49	1.7168	0.83153	1.0211	144.57	26.009	11.625	0.013661
296.57	0.63464	1212.7	0.00082464	231.78	232.30	1.1125	0.90968	1.4182	513.78	-0.032729	198.74	0.081812	0.0082386	30.844	0.032421	390.95	411.53	1.7168	0.83174	1.0216	144.56	25.994	11.627	0.013668
296.64	0.63594	1212.4	0.00082481	231.87	232.40	1.1128	0.90977	1.4184	513.47	-0.032208	198.58	0.081783	0.0082296	30.908	0.032354	390.99	411.56	1.7168	0.83196	1.0220	144.55	25.978	11.630	0.013675
296.71	0.63724	1212.1	0.00082498	231.97	232.49	1.1131	0.90987	1.4187	513.16	-0.031688	198.41	0.081754	0.0082207	30.971	0.032288	391.02	411.60	1.7167	0.83217	1.0224	144.53	25.962	11.633	0.013681
296.77	0.63854	1211.9	0.00082516	232.06	232.59	1.1134	0.90996	1.4190	512.84	-0.031167	198.24	0.081725	0.0082118	31.035	0.032222	391.06	411.63	1.7167	0.83239	1.0229	144.52	25.947	11.636	0.013688
296.84	0.63984	1211.6	0.00082533	232.16	232.69	1.1137	0.91005	1.4193	512.53	-0.030647	198.08	0.081696	0.0082029	31.099	0.032156	391.09	411.67	1.7167	0.83260	1.0233	144.51	25.931	11.639	0.013695
296.91	0.64114	1211.4	0.00082550	232.25	232.78	1.1141	0.91015	1.4195	512.22	-0.030126	197.91	0.081667	0.0081940	31.162	0.032090	391.13	411.70	1.7167	0.83281	1.0237	144.50	25.916	11.641	0.013701
296.98	0.64245	1211.1	0.00082567	232.35	232.88	1.1144	0.91024	1.4198	511.90	-0.029605	197.74	0.081638	0.0081851	31.226	0.032025	391.16	411.74	1.7166	0.83303	1.0241	144.48	25.900	11.644	0.013708
297.04	0.64375	1210.9	0.00082585	232.44	232.97	1.1147	0.91033	1.4201	511.59	-0.029084	197.58	0.081609	0.0081763	31.290	0.031960	391.20	411.77	1.7166	0.83324	1.0246	144.47	25.885	11.647	0.013715
297.11	0.64505	1210.6	0.00082602	232.54	233.07	1.1150	0.91043	1.4203	511.28	-0.028563	197.41	0.081580	0.0081674	31.353	0.031895	391.23	411.80	1.7166	0.83345	1.0250	144.46	25.870	11.650	0.013721
297.18	0.64635	1210.4	0.00082619	232.63	233.16	1.1153	0.91052	1.4206	510.97	-0.028041	197.25	0.081551	0.0081586	31.417	0.031830	391.27	411.84	1.7166	0.83366	1.0254	144.44	25.854	11.653	0.013728
297.25	0.64765	1210.1	0.00082636	232.72	233.26	1.1156	0.91061	1.4209	510.66	-0.027520	197.09	0.081522	0.0081498	31.481	0.031766	391.30	411.87	1.7165	0.83387	1.0258	144.43	25.839	11.655	0.013735
297.31	0.64895	1209.9	0.00082654	232.82	233.35	1.1160	0.91070	1.4212	510.35	-0.026998	196.92	0.081494	0.0081410	31.544	0.031701	391.34	411.91	1.7165	0.83408	1.0263	144.42	25.824	11.658	0.013741
297.38	0.65025	1209.6	0.00082671	232.91	233.45	1.1163	0.91080	1.4214	510.04	-0.026476	196.76	0.081465	0.0081322	31.608	0.031638	391.37	411.94	1.7165	0.83430	1.0267	144.41	25.809	11.661	0.013748
297.45	0.65155	1209.4	0.00082688	233.01	233.54	1.1166	0.91089	1.4217	509.73	-0.025955	196.60	0.081436	0.0081235	31.672	0.031574	391.40	411.98	1.7165	0.83451	1.0271	144.39	25.793	11.664	0.013755
297.51	0.65285	1209.1	0.00082705	233.10	233.64	1.1169	0.91098	1.4220	509.42	-0.025433	196.43	0.081408	0.0081147	31.735	0.031511	391.44	412.01	1.7165	0.83472	1.0275	144.38	25.778	11.666	0.013761
297.58	0.65415	1208.9	0.00082722	233.19	233.73	1.1172	0.91107	1.4223	509.11	-0.024911	196.27	0.081379	0.0081060	31.799	0.031447	391.47	412.04	1.7164	0.83493	1.0280	144.37	25.763	11.669	0.013768
297.65	0.65545	1208.6	0.00082739	233.29	233.83	1.1175	0.91116	1.4225	508.81	-0.024388	196.11	0.081351	0.0080973	31.863	0.031384	391.51	412.08	1.7164	0.83514	1.0284	144.35	25.748	11.672	0.013774
297.71	0.65675	1208.4	0.00082756	233.38	233.92	1.1179	0.91126	1.4228	508.50	-0.023866	195.95	0.081322	0.0080886	31.927	0.031322	391.54	412.11	1.7164	0.83535	1.0288	144.34	25.733	11.675	0.013781
297.78	0.65805	1208.1	0.00082774	233.47	234.02	1.1182	0.91135	1.4231	508.19	-0.023344	195.79	0.081294	0.0080799	31.990	0.031259	391.57	412.15	1.7164	0.83556	1.0293	144.33	25.718	11.677	0.013788
297.84	0.65935	1207.9	0.00082791	233.57	234.11	1.1185	0.91144	1.4233	507.88	-0.022821	195.63	0.081265	0.0080712	32.054	0.031197	391.61	412.18	1.7163	0.83577	1.0297	144.32	25.704	11.680	0.013794
297.91	0.66066	1207.6	0.00082808	233.66	234.21	1.1188	0.91153	1.4236	507.58	-0.022298	195.47	0.081237	0.0080626	32.118	0.031135	391.64	412.21	1.7163	0.83598	1.0301	144.30	25.689	11.683	0.013801
297.98	0.66196	1207.4	0.00082825	233.75	234.30	1.1191	0.91162	1.4239	507.27	-0.021775	195.31	0.081209	0.0080539	32.182	0.031073	391.68	412.25	1.7163	0.83618	1.0305	144.29	25.674	11.686	0.013807
298.04	0.66326	1207.1	0.00082842	233.84	234.39	1.1194	0.91171	1.4242	506.97	-0.021252	195.15	0.081180	0.0080453	32.246	0.031012	391.71	412.28	1.7163	0.83639	1.0309	144.28	25.659	11.688	0.013814
298.11	0.66456	1206.9	0.00082859	233.94	234.49	1.1197	0.91181	1.4244	506.66	-0.020729	194.99	0.081152	0.0080367	32.310	0.030951	391.74	412.31	1.7162	0.83660	1.0314	144.26	25.644	11.691	0.013821
298.17	0.66586	1206.6	0.00082876	234.03	234.58	1.1200	0.91190	1.4247	506.36	-0.020206	194.83	0.081124	0.0080281	32.373	0.030890	391.78	412.35	1.7162	0.83681	1.0318	144.25	25.630	11.694	0.013827
298.24	0.66716	1206.4	0.00082893	234.12	234.67	1.1203	0.91199	1.4250	506.05	-0.019682	194.67	0.081096	0.0080195	32.437	0.030829	391.81	412.38	1.7162	0.83702	1.0322	144.24	25.615	11.697	0.013834
298.31	0.66846	1206.1	0.00082910	234.21	234.77	1.1207	0.91208	1.4253	505.75	-0.019159	194.51	0.081068	0.0080109	32.501	0.030768	391.85	412.41	1.7162	0.83722	1.0326	144.23	25.601	11.699	0.013840
298.37	0.66976	1205.9	0.00082927	234.30	234.86	1.1210	0.91217	1.4255	505.45	-0.018635	194.35	0.081040	0.0080023	32.565	0.030708	391.88	412.45	1.7161	0.83743	1.0331	144.21	25.586	11.702	0.013847
298.44	0.67106	1205.6	0.00082944	234.40	234.95	1.1213	0.91226	1.4258	505.15	-0.018111	194.20	0.081012	0.0079938	32.629	0.030648	391.91	412.48	1.7161	0.83764	1.0335	144.20	25.572	11.705	0.013853
298.50	0.67236	1205.4	0.00082961	234.49	235.05	1.1216	0.91235	1.4261	504.84	-0.017587	194.04	0.080984	0.0079853	32.693	0.030588	391.95	412.51	1.7161	0.83785	1.0339	144.19	25.557	11.708	0.013860
298.57	0.67366	1205.1	0.00082978	234.58	235.14	1.1219	0.91244	1.4263	504.54	-0.017063	193.88	0.080956	0.0079768	32.757	0.030528	391.98	412.54	1.7161	0.83805	1.0343	144.17	25.543	11.710	0.013866
298.63	0.67496	1204.9	0.00082995	234.67	235.23	1.1222	0.91253	1.4266	504.24	-0.016539	193.73	0.080928	0.0079683	32.821	0.030469	392.01	412.58	1.7161	0.83826	1.0348	144.16	25.528	11.713	0.013873
298.70	0.67626	1204.6	0.00083012	234.76	235.32	1.1225	0.91262	1.4269	503.94	-0.016014	193.57	0.080900	0.0079598	32.885	0.030409	392.05	412.61	1.7160	0.83846	1.0352	144.15	25.514	11.716	0.013879
298.76	0.67756	1204.4	0.00083029	234.85	235.42	1.1228	0.91271	1.4272	503.64	-0.015489	193.41	0.080872	0.0079513	32.949	0.030350	392.08	412.64	1.7160	0.83867	1.0356	144.13	25.500	11.718	0.013886
298.83	0.67887	1204.2	0.00083046	234.95	235.51	1.1231	0.91280	1.4274	503.34	-0.014965	193.26	0.080845	0.0079428	33.013	0.030291	392.11	412.68	1.7160	0.83888	1.0360	144.12	25.485	11.721	0.013892
298.89	0.68017	1203.9	0.00083063	235.04	235.60	1.1234	0.91289	1.4277	503.04	-0.014440	193.10	0.080817	0.0079344	33.077	0.030233	392.14	412.71	1.7160	0.83908	1.0365	144.11	25.471	11.724	0.013899
298.95	0.68147	1203.7	0.00083080	235.13	235.69	1.1237	0.91298	1.4280	502.74	-0.013915	192.95	0.080789	0.0079260	33.141	0.030174	392.18	412.74	1.7159	0.83929	1.0369	144.09	25.457	11.727	0.013905
299.02	0.68277	1203.4	0.00083097	235.22	235.79	1.1240	0.91307	1.4282	502.44	-0.013390	192.79	0.080762	0.0079176	33.205	0.030116	392.21	412.77	1.7159	0.83949	1.0373	144.08	25.443	11.729	0.013912
299.08	0.68407	1203.2	0.00083114	235.31	235.88	1.1243	0.91316	1.4285	502.14	-0.012864	192.64	0.080734	0.0079091	33.269	0.030058	392.24	412.81	1.7159	0.83970	1.0377	144.07	25.429	11.732	0.013918
299.15	0.68537	1202.9	0.00083131	235.40	235.97	1.1246	0.91325	1.4288	501.85	-0.012339	192.49	0.080707	0.0079008	33.333	0.030001	392.28	412.84	1.7159	0.83990	1.0381	144.05	25.415	11.735	0.013925
299.21	0.68667	1202.7	0.00083148	235.49	236.06	1.1249	0.91334	1.4291	501.55	-0.011813	192.33	0.080679	0.0078924	33.397	0.029943	392.31	412.87	1.7159	0.84010	1.0386	144.04	25.401	11.737	0.013931
299.28	0.68797	1202.4	0.00083164	235.58	236.15	1.1252	0.91343	1.4293	501.25	-0.011287	192.18	0.080652	0.0078840	33.461	0.029886	392.34	412.90	1.7158	0.84031	1.0390	144.03	25.387	11.740	0.013938
299.34	0.68927	1202.2	0.00083181	235.67	236.24	1.1255	0.91352	1.4296	500.95	-0.010761	192.03	0.080624	0.0078757	33.525	0.029829	392.37	412.93	1.7158	0.84051	1.0394	144.01	25.373	11.743	0.013944
299.40	0.69057	1201.9	0.00083198	235.76	236.33	1.1258	0.91361	1.4299	500.66	-0.010235	191.87	0.080597	0.0078673	33.589	0.029772	392.41	412.97	1.7158	0.84071	1.0398	144.00	25.359	11.746	0.013951
299.47	0.69187	1201.7	0.00083215	235.85	236.43	1.1261	0.91370	1.4301	500.36	-0.0097089	191.72	0.080570	0.0078590	33.653	0.029715	392.44	413.00	1.7158	0.84092	1.0403	143.99	25.345	11.748	0.013957
299.53	0.69317	1201.5	0.00083232	235.94	236.52	1.1264	0.91379	1.4304	500.07	-0.0091824	191.57	0.080542	0.0078507	33.717	0.029659	392.47	413.03	1.7157	0.84112	1.0407	143.98	25.331	11.751	0.013964
299.59	0.69447	1201.2	0.00083249	236.03	236.61	1.1267	0.91388	1.4307	499.77	-0.0086558	191.42	0.080515	0.0078424	33.781	0.029602	392.50	413.06	1.7157	0.84132	1.0411	143.96	25.318	11.754	0.013970
299.66	0.69577	1201.0	0.00083266	236.12	236.70	1.1270	0.91397	1.4310	499.48	-0.0081291	191.27	0.080488	0.0078341	33.845	0.029546	392.54	413.09	1.7157	0.84153	1.0415	143.95	25.304	11.756	0.013976
299.72	0.69708	1200.7	0.00083282	236.21	236.79	1.1273	0.91405	1.4312	499.18	-0.0076022	191.12	0.080461	0.0078259	33.909	0.029490	392.57	413.13	1.7157	0.84173	1.0419	143.94	25.290	11.759	0.013983
299.78	0.69838	1200.5	0.00083299	236.30	236.88	1.1276	0.91414	1.4315	498.89	-0.0070751	190.97	0.080433	0.0078176	33.974	0.029435	392.60	413.16	1.7157	0.84193	1.0424	143.92	25.276	11.762	0.013989
299.85	0.69968	1200.3	0.00083316	236.39	236.97	1.1279	0.91423	1.4318	498.60	-0.0065479	190.82	0.080406	0.0078094	34.038	0.029379	392.63	413.19	1.7156	0.84213	1.0428	143.91	25.263	11.764	0.013996
299.91	0.70098	1200.0	0.00083333	236.48	237.06	1.1282	0.91432	1.4320	498.30	-0.0060205	190.67	0.080379	0.0078011	34.102	0.029324	392.67	413.22	1.7156	0.84233	1.0432	143.90	25.249	11.767	0.014002
299.97	0.70228	1199.8	0.00083350	236.57	237.15	1.1285	0.91441	1.4323	498.01	-0.0054929	190.52	0.080352	0.0077929	34.166	0.029269	392.70	413.25	1.7156	0.84253	1.0436	143.88	25.236	11.770	0.014009
300.04	0.70358	1199.5	0.00083366	236.66	237.24	1.1288	0.91450	1.4326	497.72	-0.0049652	190.37	0.080325	0.0077847	34.230	0.029214	392.73	413.28	1.7156	0.84273	1.0440	143.87	25.222	11.772	0.014015
300.10	0.70488	1199.3	0.00083383	236.74	237.33	1.1291	0.91459	1.4329	497.43	-0.0044373	190.22	0.080298	0.0077765	34.295	0.029159	392.76	413.32	1.7155	0.84294	1.0445	143.85	25.209	11.775	0.014021
300.16	0.70618	1199.0	0.00083400	236.83	237.42	1.1294	0.91467	1.4331	497.13	-0.0039092	190.07	0.080271	0.0077684	34.359	0.029105	392.79	413.35	1.7155	0.84314	1.0449	143.84	25.195	11.778	0.014028
300.23	0.70748	1198.8	0.00083417	236.92	237.51	1.1297	0.91476	1.4334	496.84	-0.0033810	189.92	0.080245	0.0077602	34.423	0.029050	392.83	413.38	1.7155	0.84334	1.0453	143.83	25.182	11.780	0.014034
300.29	0.70878	1198.6	0.00083433	237.01	237.60	1.1300	0.91485	1.4337	496.55	-0.0028526	189.78	0.080218	0.0077521	34.487	0.028996	392.86	413.41	1.7155	0.84354	1.0457	143.81	25.168	11.783	0.014040
300.35	0.71008	1198.3	0.00083450	237.10	237.69	1.1303	0.91494	1.4339	496.26	-0.0023241	189.63	0.080191	0.0077439	34.551	0.028942	392.89	413.44	1.7155	0.84374	1.0461	143.80	25.155	11.786	0.014047
300.41	0.71138	1198.1	0.00083467	237.19	237.78	1.1306	0.91503	1.4342	495.97	-0.0017954	189.48	0.080164	0.0077358	34.616	0.028889	392.92	413.47	1.7154	0.84394	1.0466	143.79	25.142	11.788	0.014053
300.48	0.71268	1197.8	0.00083483	237.28	237.87	1.1309	0.91511	1.4345	495.68	-0.0012665	189.33	0.080137	0.0077277	34.680	0.028835	392.95	413.50	1.7154	0.84413	1.0470	143.77	25.129	11.791	0.014060
300.54	0.71398	1197.6	0.00083500	237.36	237.96	1.1312	0.91520	1.4348	495.39	-0.00073742	189.19	0.080111	0.0077196	34.744	0.028782	392.98	413.53	1.7154	0.84433	1.0474	143.76	25.115	11.794	0.014066
300.60	0.71529	1197.4	0.00083517	237.45	238.05	1.1315	0.91529	1.4350	495.10	-0.00020819	189.04	0.080084	0.0077115	34.809	0.028728	393.02	413.56	1.7154	0.84453	1.0478	143.75	25.102	11.796	0.014072
300.66	0.71659	1197.1	0.00083533	237.54	238.14	1.1318	0.91538	1.4353	494.82	0.00032121	188.89	0.080057	0.0077034	34.873	0.028675	393.05	413.60	1.7153	0.84473	1.0482	143.73	25.089	11.799	0.014079
300.72	0.71789	1196.9	0.00083550	237.63	238.23	1.1321	0.91546	1.4356	494.53	0.00085079	188.75	0.080031	0.0076954	34.937	0.028623	393.08	413.63	1.7153	0.84493	1.0487	143.72	25.076	11.802	0.014085
300.79	0.71919	1196.6	0.00083567	237.71	238.32	1.1324	0.91555	1.4358	494.24	0.0013805	188.60	0.080004	0.0076873	35.002	0.028570	393.11	413.66	1.7153	0.84513	1.0491	143.71	25.063	11.804	0.014091
300.85	0.72049	1196.4	0.00083583	237.80	238.40	1.1327	0.91564	1.4361	493.95	0.0019105	188.46	0.079978	0.0076793	35.066	0.028518	393.14	413.69	1.7153	0.84533	1.0495	143.69	25.050	11.807	0.014098
300.91	0.72179	1196.2	0.00083600	237.89	238.49	1.1329	0.91572	1.4364	493.67	0.0024406	188.31	0.079951	0.0076713	35.130	0.028465	393.17	413.72	1.7153	0.84552	1.0499	143.68	25.037	11.810	0.014104
300.97	0.72309	1195.9	0.00083617	237.98	238.58	1.1332	0.91581	1.4367	493.38	0.0029708	188.17	0.079925	0.0076633	35.195	0.028413	393.20	413.75	1.7152	0.84572	1.0503	143.67	25.024	11.812	0.014110
301.03	0.72439	1195.7	0.00083633	238.06	238.67	1.1335	0.91590	1.4369	493.09	0.0035013	188.02	0.079899	0.0076553	35.259	0.028361	393.23	413.78	1.7152	0.84592	1.0508	143.65	25.011	11.815	0.014117
301.09	0.72569	1195.5	0.00083650	238.15	238.76	1.1338	0.91598	1.4372	492.81	0.0040319	187.88	0.079872	0.0076473	35.324	0.028310	393.27	413.81	1.7152	0.84612	1.0512	143.64	24.998	11.817	0.014123
301.16	0.72699	1195.2	0.00083666	238.24	238.85	1.1341	0.91607	1.4375	492.52	0.0045627	187.74	0.079846	0.0076393	35.388	0.028258	393.30	413.84	1.7152	0.84631	1.0516	143.62	24.985	11.820	0.014129
301.22	0.72829	1195.0	0.00083683	238.33	238.94	1.1344	0.91616	1.4377	492.24	0.0050937	187.59	0.079820	0.0076314	35.452	0.028207	393.33	413.87	1.7152	0.84651	1.0520	143.61	24.972	11.823	0.014135
301.28	0.72959	1194.7	0.00083700	238.41	239.02	1.1347	0.91624	1.4380	491.95	0.0056248	187.45	0.079793	0.0076234	35.517	0.028156	393.36	413.90	1.7151	0.84671	1.0524	143.60	24.959	11.825	0.014142
301.34	0.73089	1194.5	0.00083716	238.50	239.11	1.1350	0.91633	1.4383	491.67	0.0061562	187.31	0.079767	0.0076155	35.581	0.028105	393.39	413.93	1.7151	0.84690	1.0529	143.58	24.947	11.828	0.014148
301.40	0.73219	1194.3	0.00083733	238.59	239.20	1.1353	0.91642	1.4386	491.38	0.0066877	187.17	0.079741	0.0076075	35.646	0.028054	393.42	413.96	1.7151	0.84710	1.0533	143.57	24.934	11.831	0.014154
301.46	0.73350	1194.0	0.00083749	238.67	239.29	1.1355	0.91650	1.4388	491.10	0.0072194	187.02	0.079715	0.0075996	35.710	0.028003	393.45	413.99	1.7151	0.84729	1.0537	143.56	24.921	11.833	0.014161
301.52	0.73480	1193.8	0.00083766	238.76	239.37	1.1358	0.91659	1.4391	490.82	0.0077513	186.88	0.079689	0.0075917	35.775	0.027953	393.48	414.02	1.7150	0.84749	1.0541	143.54	24.908	11.836	0.014167
301.58	0.73610	1193.6	0.00083782	238.85	239.46	1.1361	0.91668	1.4394	490.53	0.0082834	186.74	0.079663	0.0075839	35.839	0.027902	393.51	414.05	1.7150	0.84769	1.0545	143.53	24.896	11.839	0.014173
301.64	0.73740	1193.3	0.00083799	238.93	239.55	1.1364	0.91676	1.4396	490.25	0.0088156	186.60	0.079637	0.0075760	35.904	0.027852	393.54	414.08	1.7150	0.84788	1.0550	143.52	24.883	11.841	0.014179
301.70	0.73870	1193.1	0.00083816	239.02	239.64	1.1367	0.91685	1.4399	489.97	0.0093481	186.46	0.079611	0.0075681	35.968	0.027802	393.57	414.11	1.7150	0.84808	1.0554	143.50	24.871	11.844	0.014186
301.77	0.74000	1192.9	0.00083832	239.10	239.72	1.1370	0.91693	1.4402	489.69	0.0098807	186.32	0.079585	0.0075603	36.033	0.027752	393.60	414.14	1.7150	0.84827	1.0558	143.49	24.858	11.846	0.014192
301.83	0.74130	1192.6	0.00083849	239.19	239.81	1.1373	0.91702	1.4405	489.41	0.010413	186.18	0.079559	0.0075524	36.098	0.027703	393.63	414.17	1.7149	0.84846	1.0562	143.47	24.846	11.849	0.014198
301.89	0.74260	1192.4	0.00083865	239.28	239.90	1.1375	0.91711	1.4407	489.12	0.010946	186.04	0.079533	0.0075446	36.162	0.027653	393.67	414.20	1.7149	0.84866	1.0566	143.46	24.833	11.852	0.014204
301.95	0.74390	1192.2	0.00083882	239.36	239.99	1.1378	0.91719	1.4410	488.84	0.011480	185.90	0.079507	0.0075368	36.227	0.027604	393.70	414.23	1.7149	0.84885	1.0570	143.45	24.821	11.854	0.014211
302.01	0.74520	1191.9	0.00083898	239.45	240.07	1.1381	0.91728	1.4413	488.56	0.012013	185.76	0.079481	0.0075290	36.291	0.027555	393.73	414.26	1.7149	0.84905	1.0575	143.43	24.808	11.857	0.014217
302.07	0.74650	1191.7	0.00083915	239.53	240.16	1.1384	0.91736	1.4415	488.28	0.012547	185.62	0.079456	0.0075212	36.356	0.027506	393.76	414.29	1.7149	0.84924	1.0579	143.42	24.796	11.859	0.014223
302.13	0.74780	1191.5	0.00083931	239.62	240.25	1.1387	0.91745	1.4418	488.00	0.013080	185.48	0.079430	0.0075134	36.421	0.027457	393.79	414.32	1.7148	0.84943	1.0583	143.40	24.784	11.862	0.014229
302.19	0.74910	1191.2	0.00083947	239.70	240.33	1.1390	0.91753	1.4421	487.72	0.013614	185.34	0.079404	0.0075056	36.485	0.027408	393.82	414.35	1.7148	0.84963	1.0587	143.39	24.771	11.865	0.014236
302.25	0.75040	1191.0	0.00083964	239.79	240.42	1.1392	0.91762	1.4424	487.44	0.014148	185.20	0.079378	0.0074979	36.550	0.027360	393.85	414.38	1.7148	0.84982	1.0591	143.38	24.759	11.867	0.014242
302.31	0.75171	1190.8	0.00083980	239.87	240.50	1.1395	0.91770	1.4426	487.17	0.014683	185.06	0.079353	0.0074901	36.615	0.027312	393.88	414.41	1.7148	0.85001	1.0596	143.36	24.747	11.870	0.014248
302.37	0.75301	1190.5	0.00083997	239.96	240.59	1.1398	0.91779	1.4429	486.89	0.015217	184.92	0.079327	0.0074824	36.679	0.027263	393.91	414.44	1.7148	0.85021	1.0600	143.35	24.735	11.872	0.014254
302.43	0.75431	1190.3	0.00084013	240.04	240.68	1.1401	0.91787	1.4432	486.61	0.015752	184.79	0.079302	0.0074747	36.744	0.027215	393.94	414.47	1.7147	0.85040	1.0604	143.34	24.722	11.875	0.014261
302.49	0.75561	1190.1	0.00084030	240.13	240.76	1.1404	0.91796	1.4434	486.33	0.016287	184.65	0.079276	0.0074670	36.809	0.027168	393.97	414.49	1.7147	0.85059	1.0608	143.32	24.710	11.878	0.014267
302.55	0.75691	1189.8	0.00084046	240.21	240.85	1.1407	0.91804	1.4437	486.05	0.016822	184.51	0.079251	0.0074593	36.873	0.027120	394.00	414.52	1.7147	0.85078	1.0612	143.31	24.698	11.880	0.014273
302.61	0.75821	1189.6	0.00084062	240.30	240.94	1.1409	0.91813	1.4440	485.78	0.017357	184.38	0.079225	0.0074516	36.938	0.027072	394.03	414.55	1.7147	0.85097	1.0616	143.29	24.686	11.883	0.014279
302.66	0.75951	1189.4	0.00084079	240.38	241.02	1.1412	0.91821	1.4442	485.50	0.017893	184.24	0.079200	0.0074439	37.003	0.027025	394.06	414.58	1.7147	0.85117	1.0621	143.28	24.674	11.885	0.014285
302.72	0.76081	1189.1	0.00084095	240.47	241.11	1.1415	0.91830	1.4445	485.23	0.018429	184.10	0.079174	0.0074363	37.068	0.026978	394.09	414.61	1.7146	0.85136	1.0625	143.27	24.662	11.888	0.014292
302.78	0.76211	1188.9	0.00084112	240.55	241.19	1.1418	0.91838	1.4448	484.95	0.018964	183.97	0.079149	0.0074286	37.132	0.026931	394.12	414.64	1.7146	0.85155	1.0629	143.25	24.650	11.891	0.014298
302.84	0.76341	1188.7	0.00084128	240.64	241.28	1.1421	0.91846	1.4451	484.67	0.019501	183.83	0.079124	0.0074210	37.197	0.026884	394.15	414.67	1.7146	0.85174	1.0633	143.24	24.638	11.893	0.014304
302.90	0.76471	1188.4	0.00084144	240.72	241.36	1.1423	0.91855	1.4453	484.40	0.020037	183.69	0.079098	0.0074133	37.262	0.026837	394.17	414.70	1.7146	0.85193	1.0637	143.22	24.626	11.896	0.014310
302.96	0.76601	1188.2	0.00084161	240.80	241.45	1.1426	0.91863	1.4456	484.12	0.020573	183.56	0.079073	0.0074057	37.327	0.026790	394.20	414.73	1.7146	0.85212	1.0641	143.21	24.614	11.898	0.014316
303.02	0.76731	1188.0	0.00084177	240.89	241.53	1.1429	0.91872	1.4459	483.85	0.021110	183.42	0.079048	0.0073981	37.392	0.026744	394.23	414.75	1.7145	0.85231	1.0646	143.20	24.602	11.901	0.014322
303.08	0.76861	1187.7	0.00084193	240.97	241.62	1.1432	0.91880	1.4461	483.57	0.021647	183.29	0.079022	0.0073905	37.456	0.026698	394.26	414.78	1.7145	0.85250	1.0650	143.18	24.590	11.904	0.014329
303.14	0.76992	1187.5	0.00084210	241.06	241.70	1.1434	0.91889	1.4464	483.30	0.022184	183.16	0.078997	0.0073829	37.521	0.026651	394.29	414.81	1.7145	0.85269	1.0654	143.17	24.579	11.906	0.014335
303.20	0.77122	1187.3	0.00084226	241.14	241.79	1.1437	0.91897	1.4467	483.03	0.022721	183.02	0.078972	0.0073754	37.586	0.026605	394.32	414.84	1.7145	0.85288	1.0658	143.15	24.567	11.909	0.014341
303.25	0.77252	1187.1	0.00084242	241.22	241.87	1.1440	0.91905	1.4470	482.75	0.023259	182.89	0.078947	0.0073678	37.651	0.026560	394.35	414.87	1.7145	0.85307	1.0662	143.14	24.555	11.911	0.014347
303.31	0.77382	1186.8	0.00084259	241.31	241.96	1.1443	0.91914	1.4472	482.48	0.023796	182.75	0.078922	0.0073603	37.716	0.026514	394.38	414.90	1.7144	0.85326	1.0666	143.13	24.543	11.914	0.014353
303.37	0.77512	1186.6	0.00084275	241.39	242.04	1.1445	0.91922	1.4475	482.21	0.024334	182.62	0.078897	0.0073527	37.781	0.026468	394.41	414.93	1.7144	0.85345	1.0671	143.11	24.532	11.916	0.014359
303.43	0.77642	1186.4	0.00084291	241.47	242.13	1.1448	0.91930	1.4478	481.94	0.024873	182.49	0.078872	0.0073452	37.846	0.026423	394.44	414.95	1.7144	0.85364	1.0675	143.10	24.520	11.919	0.014365
303.49	0.77772	1186.1	0.00084308	241.56	242.21	1.1451	0.91939	1.4480	481.66	0.025411	182.35	0.078847	0.0073377	37.911	0.026378	394.47	414.98	1.7144	0.85383	1.0679	143.08	24.508	11.922	0.014372
303.55	0.77902	1185.9	0.00084324	241.64	242.30	1.1454	0.91947	1.4483	481.39	0.025949	182.22	0.078822	0.0073302	37.976	0.026333	394.50	415.01	1.7144	0.85402	1.0683	143.07	24.497	11.924	0.014378
303.61	0.78032	1185.7	0.00084340	241.72	242.38	1.1456	0.91955	1.4486	481.12	0.026488	182.09	0.078797	0.0073227	38.041	0.026288	394.53	415.04	1.7143	0.85421	1.0687	143.06	24.485	11.927	0.014384
303.66	0.78162	1185.4	0.00084356	241.81	242.47	1.1459	0.91964	1.4489	480.85	0.027027	181.96	0.078772	0.0073152	38.106	0.026243	394.56	415.07	1.7143	0.85439	1.0691	143.04	24.474	11.929	0.014390
303.72	0.78292	1185.2	0.00084373	241.89	242.55	1.1462	0.91972	1.4491	480.58	0.027566	181.82	0.078747	0.0073077	38.171	0.026198	394.58	415.10	1.7143	0.85458	1.0696	143.03	24.462	11.932	0.014396
303.78	0.78422	1185.0	0.00084389	241.97	242.63	1.1465	0.91980	1.4494	480.31	0.028106	181.69	0.078722	0.0073002	38.236	0.026154	394.61	415.12	1.7143	0.85477	1.0700	143.01	24.451	11.934	0.014402
303.84	0.78552	1184.8	0.00084405	242.05	242.72	1.1467	0.91989	1.4497	480.04	0.028645	181.56	0.078698	0.0072928	38.301	0.026109	394.64	415.15	1.7143	0.85496	1.0704	143.00	24.439	11.937	0.014408
303.90	0.78682	1184.5	0.00084421	242.14	242.80	1.1470	0.91997	1.4499	479.77	0.029185	181.43	0.078673	0.0072854	38.366	0.026065	394.67	415.18	1.7142	0.85514	1.0708	142.98	24.428	11.940	0.014414
303.95	0.78813	1184.3	0.00084438	242.22	242.88	1.1473	0.92005	1.4502	479.50	0.029725	181.30	0.078648	0.0072779	38.431	0.026021	394.70	415.21	1.7142	0.85533	1.0712	142.97	24.416	11.942	0.014421
304.01	0.78943	1184.1	0.00084454	242.30	242.97	1.1476	0.92014	1.4505	479.23	0.030265	181.17	0.078624	0.0072705	38.496	0.025977	394.73	415.23	1.7142	0.85552	1.0716	142.96	24.405	11.945	0.014427
304.07	0.79073	1183.9	0.00084470	242.38	243.05	1.1478	0.92022	1.4508	478.96	0.030806	181.04	0.078599	0.0072631	38.561	0.025933	394.76	415.26	1.7142	0.85571	1.0721	142.94	24.394	11.947	0.014433
304.13	0.79203	1183.6	0.00084486	242.47	243.14	1.1481	0.92030	1.4510	478.69	0.031346	180.91	0.078574	0.0072557	38.626	0.025889	394.79	415.29	1.7142	0.85589	1.0725	142.93	24.382	11.950	0.014439
304.18	0.79333	1183.4	0.00084503	242.55	243.22	1.1484	0.92038	1.4513	478.43	0.031887	180.78	0.078550	0.0072483	38.691	0.025846	394.81	415.32	1.7141	0.85608	1.0729	142.91	24.371	11.952	0.014445
304.24	0.79463	1183.2	0.00084519	242.63	243.30	1.1486	0.92047	1.4516	478.16	0.032428	180.65	0.078525	0.0072409	38.756	0.025802	394.84	415.35	1.7141	0.85627	1.0733	142.90	24.360	11.955	0.014451
304.30	0.79593	1182.9	0.00084535	242.71	243.39	1.1489	0.92055	1.4518	477.89	0.032970	180.52	0.078500	0.0072336	38.821	0.025759	394.87	415.37	1.7141	0.85645	1.0737	142.88	24.349	11.957	0.014457
304.36	0.79723	1182.7	0.00084551	242.79	243.47	1.1492	0.92063	1.4521	477.62	0.033511	180.39	0.078476	0.0072262	38.886	0.025716	394.90	415.40	1.7141	0.85664	1.0741	142.87	24.337	11.960	0.014463
304.41	0.79853	1182.5	0.00084567	242.88	243.55	1.1494	0.92071	1.4524	477.36	0.034053	180.26	0.078451	0.0072189	38.952	0.025673	394.93	415.43	1.7141	0.85682	1.0746	142.86	24.326	11.962	0.014469
304.47	0.79983	1182.3	0.00084583	242.96	243.63	1.1497	0.92080	1.4526	477.09	0.034595	180.13	0.078427	0.0072115	39.017	0.025630	394.96	415.46	1.7140	0.85701	1.0750	142.84	24.315	11.965	0.014475
304.53	0.80113	1182.0	0.00084600	243.04	243.72	1.1500	0.92088	1.4529	476.83	0.035137	180.00	0.078403	0.0072042	39.082	0.025587	394.98	415.48	1.7140	0.85720	1.0754	142.83	24.304	11.968	0.014481
304.58	0.80243	1181.8	0.00084616	243.12	243.80	1.1502	0.92096	1.4532	476.56	0.035679	179.87	0.078378	0.0071969	39.147	0.025545	395.01	415.51	1.7140	0.85738	1.0758	142.81	24.293	11.970	0.014487
304.64	0.80373	1181.6	0.00084632	243.20	243.88	1.1505	0.92104	1.4535	476.29	0.036222	179.75	0.078354	0.0071896	39.212	0.025502	395.04	415.54	1.7140	0.85757	1.0762	142.80	24.282	11.973	0.014493
304.70	0.80503	1181.4	0.00084648	243.28	243.97	1.1508	0.92112	1.4537	476.03	0.036765	179.62	0.078330	0.0071823	39.278	0.025460	395.07	415.56	1.7140	0.85775	1.0766	142.78	24.271	11.975	0.014499
304.75	0.80634	1181.1	0.00084664	243.37	244.05	1.1511	0.92121	1.4540	475.76	0.037308	179.49	0.078305	0.0071750	39.343	0.025418	395.10	415.59	1.7139	0.85794	1.0771	142.77	24.260	11.978	0.014506
304.81	0.80764	1180.9	0.00084680	243.45	244.13	1.1513	0.92129	1.4543	475.50	0.037851	179.36	0.078281	0.0071677	39.408	0.025376	395.13	415.62	1.7139	0.85812	1.0775	142.76	24.249	11.980	0.014512
304.87	0.80894	1180.7	0.00084696	243.53	244.21	1.1516	0.92137	1.4545	475.23	0.038395	179.24	0.078257	0.0071605	39.473	0.025334	395.15	415.65	1.7139	0.85830	1.0779	142.74	24.238	11.983	0.014518
304.92	0.81024	1180.5	0.00084713	243.61	244.30	1.1519	0.92145	1.4548	474.97	0.038938	179.11	0.078233	0.0071532	39.539	0.025292	395.18	415.67	1.7139	0.85849	1.0783	142.73	24.227	11.985	0.014524
304.98	0.81154	1180.2	0.00084729	243.69	244.38	1.1521	0.92153	1.4551	474.71	0.039482	178.98	0.078208	0.0071460	39.604	0.025250	395.21	415.70	1.7139	0.85867	1.0787	142.71	24.216	11.988	0.014530
305.04	0.81284	1180.0	0.00084745	243.77	244.46	1.1524	0.92161	1.4554	474.44	0.040026	178.86	0.078184	0.0071387	39.669	0.025208	395.24	415.73	1.7138	0.85886	1.0791	142.70	24.205	11.990	0.014536
305.09	0.81414	1179.8	0.00084761	243.85	244.54	1.1526	0.92170	1.4556	474.18	0.040571	178.73	0.078160	0.0071315	39.735	0.025167	395.26	415.75	1.7138	0.85904	1.0795	142.68	24.194	11.993	0.014542
305.15	0.81544	1179.6	0.00084777	243.93	244.62	1.1529	0.92178	1.4559	473.92	0.041115	178.60	0.078136	0.0071243	39.800	0.025126	395.29	415.78	1.7138	0.85922	1.0800	142.67	24.183	11.995	0.014548
305.21	0.81674	1179.3	0.00084793	244.01	244.71	1.1532	0.92186	1.4562	473.65	0.041660	178.48	0.078112	0.0071171	39.865	0.025085	395.32	415.81	1.7138	0.85941	1.0804	142.66	24.173	11.998	0.014554
305.26	0.81804	1179.1	0.00084809	244.09	244.79	1.1534	0.92194	1.4564	473.39	0.042205	178.35	0.078088	0.0071099	39.931	0.025043	395.35	415.83	1.7138	0.85959	1.0808	142.64	24.162	12.000	0.014560
305.32	0.81934	1178.9	0.00084825	244.17	244.87	1.1537	0.92202	1.4567	473.13	0.042751	178.23	0.078064	0.0071027	39.996	0.025003	395.38	415.86	1.7138	0.85977	1.0812	142.63	24.151	12.003	0.014566
305.38	0.82064	1178.7	0.00084841	244.25	244.95	1.1540	0.92210	1.4570	472.87	0.043296	178.10	0.078040	0.0070955	40.061	0.024962	395.40	415.89	1.7137	0.85996	1.0816	142.61	24.140	12.005	0.014572
305.43	0.82194	1178.4	0.00084857	244.33	245.03	1.1542	0.92218	1.4573	472.61	0.043842	177.98	0.078016	0.0070884	40.127	0.024921	395.43	415.91	1.7137	0.86014	1.0820	142.60	24.130	12.008	0.014578
305.49	0.82324	1178.2	0.00084873	244.41	245.11	1.1545	0.92226	1.4575	472.35	0.044388	177.85	0.077992	0.0070812	40.192	0.024880	395.46	415.94	1.7137	0.86032	1.0825	142.58	24.119	12.011	0.014584
305.54	0.82455	1178.0	0.00084889	244.49	245.19	1.1548	0.92234	1.4578	472.09	0.044934	177.73	0.077968	0.0070741	40.258	0.024840	395.49	415.97	1.7137	0.86050	1.0829	142.57	24.108	12.013	0.014590
305.60	0.82585	1177.8	0.00084905	244.57	245.28	1.1550	0.92243	1.4581	471.83	0.045481	177.60	0.077944	0.0070669	40.323	0.024800	395.51	415.99	1.7137	0.86069	1.0833	142.55	24.098	12.016	0.014596
305.65	0.82715	1177.6	0.00084921	244.65	245.36	1.1553	0.92251	1.4583	471.57	0.046027	177.48	0.077920	0.0070598	40.389	0.024759	395.54	416.02	1.7136	0.86087	1.0837	142.54	24.087	12.018	0.014602
305.71	0.82845	1177.3	0.00084938	244.73	245.44	1.1555	0.92259	1.4586	471.31	0.046574	177.36	0.077897	0.0070527	40.454	0.024719	395.57	416.05	1.7136	0.86105	1.0841	142.53	24.077	12.021	0.014608
305.77	0.82975	1177.1	0.00084954	244.81	245.52	1.1558	0.92267	1.4589	471.05	0.047122	177.23	0.077873	0.0070456	40.520	0.024679	395.60	416.07	1.7136	0.86123	1.0845	142.51	24.066	12.023	0.014614
305.82	0.83105	1176.9	0.00084970	244.89	245.60	1.1561	0.92275	1.4592	470.79	0.047669	177.11	0.077849	0.0070385	40.585	0.024640	395.62	416.10	1.7136	0.86141	1.0850	142.50	24.056	12.026	0.014620
305.88	0.83235	1176.7	0.00084986	244.97	245.68	1.1563	0.92283	1.4594	470.53	0.048217	176.99	0.077825	0.0070314	40.651	0.024600	395.65	416.13	1.7136	0.86159	1.0854	142.48	24.045	12.028	0.014626
305.93	0.83365	1176.4	0.00085002	245.05	245.76	1.1566	0.92291	1.4597	470.27	0.048765	176.86	0.077802	0.0070244	40.716	0.024560	395.68	416.15	1.7135	0.86177	1.0858	142.47	24.035	12.031	0.014632
305.99	0.83495	1176.2	0.00085018	245.13	245.84	1.1568	0.92299	1.4600	470.01	0.049313	176.74	0.077778	0.0070173	40.782	0.024521	395.70	416.18	1.7135	0.86196	1.0862	142.45	24.024	12.033	0.014638
306.04	0.83625	1176.0	0.00085034	245.21	245.92	1.1571	0.92307	1.4603	469.75	0.049861	176.62	0.077754	0.0070102	40.847	0.024481	395.73	416.20	1.7135	0.86214	1.0866	142.44	24.014	12.036	0.014644
306.10	0.83755	1175.8	0.00085050	245.29	246.00	1.1574	0.92315	1.4605	469.49	0.050410	176.50	0.077731	0.0070032	40.913	0.024442	395.76	416.23	1.7135	0.86232	1.0870	142.42	24.003	12.038	0.014650
306.15	0.83885	1175.6	0.00085066	245.37	246.08	1.1576	0.92323	1.4608	469.24	0.050958	176.37	0.077707	0.0069962	40.978	0.024403	395.79	416.26	1.7135	0.86250	1.0874	142.41	23.993	12.041	0.014656
306.21	0.84015	1175.3	0.00085082	245.45	246.16	1.1579	0.92331	1.4611	468.98	0.051507	176.25	0.077684	0.0069891	41.044	0.024364	395.81	416.28	1.7134	0.86268	1.0879	142.39	23.983	12.043	0.014662
306.26	0.84145	1175.1	0.00085097	245.53	246.24	1.1581	0.92339	1.4613	468.72	0.052057	176.13	0.077660	0.0069821	41.110	0.024325	395.84	416.31	1.7134	0.86286	1.0883	142.38	23.972	12.046	0.014668
306.32	0.84276	1174.9	0.00085113	245.61	246.33	1.1584	0.92347	1.4616	468.47	0.052606	176.01	0.077637	0.0069751	41.175	0.024286	395.87	416.33	1.7134	0.86304	1.0887	142.36	23.962	12.048	0.014674
306.37	0.84406	1174.7	0.00085129	245.69	246.41	1.1587	0.92355	1.4619	468.21	0.053156	175.89	0.077613	0.0069681	41.241	0.024248	395.89	416.36	1.7134	0.86322	1.0891	142.35	23.952	12.051	0.014679
306.43	0.84536	1174.5	0.00085145	245.77	246.49	1.1589	0.92363	1.4622	467.95	0.053706	175.77	0.077590	0.0069611	41.307	0.024209	395.92	416.39	1.7134	0.86340	1.0895	142.34	23.942	12.053	0.014685
306.48	0.84666	1174.2	0.00085161	245.84	246.57	1.1592	0.92371	1.4624	467.70	0.054256	175.65	0.077566	0.0069541	41.372	0.024171	395.95	416.41	1.7134	0.86358	1.0899	142.32	23.931	12.056	0.014691
306.54	0.84796	1174.0	0.00085177	245.92	246.65	1.1594	0.92379	1.4627	467.44	0.054807	175.53	0.077543	0.0069472	41.438	0.024132	395.97	416.44	1.7133	0.86376	1.0904	142.31	23.921	12.058	0.014697
306.59	0.84926	1173.8	0.00085193	246.00	246.72	1.1597	0.92387	1.4630	467.19	0.055358	175.41	0.077519	0.0069402	41.504	0.024094	396.00	416.46	1.7133	0.86393	1.0908	142.29	23.911	12.061	0.014703
306.65	0.85056	1173.6	0.00085209	246.08	246.80	1.1599	0.92395	1.4632	466.93	0.055909	175.29	0.077496	0.0069333	41.569	0.024056	396.03	416.49	1.7133	0.86411	1.0912	142.28	23.901	12.063	0.014709
306.70	0.85186	1173.4	0.00085225	246.16	246.88	1.1602	0.92403	1.4635	466.68	0.056460	175.17	0.077473	0.0069263	41.635	0.024018	396.05	416.51	1.7133	0.86429	1.0916	142.26	23.891	12.066	0.014715
306.76	0.85316	1173.1	0.00085241	246.24	246.96	1.1605	0.92411	1.4638	466.42	0.057011	175.05	0.077450	0.0069194	41.701	0.023980	396.08	416.54	1.7133	0.86447	1.0920	142.25	23.881	12.068	0.014721
306.81	0.85446	1172.9	0.00085257	246.31	247.04	1.1607	0.92419	1.4641	466.17	0.057563	174.93	0.077426	0.0069125	41.767	0.023943	396.11	416.57	1.7132	0.86465	1.0924	142.23	23.871	12.071	0.014727
306.86	0.85576	1172.7	0.00085273	246.39	247.12	1.1610	0.92427	1.4643	465.91	0.058115	174.81	0.077403	0.0069055	41.832	0.023905	396.13	416.59	1.7132	0.86483	1.0928	142.22	23.861	12.073	0.014733
306.92	0.85706	1172.5	0.00085289	246.47	247.20	1.1612	0.92435	1.4646	465.66	0.058667	174.69	0.077380	0.0068986	41.898	0.023867	396.16	416.62	1.7132	0.86501	1.0933	142.20	23.851	12.076	0.014739
306.97	0.85836	1172.3	0.00085305	246.55	247.28	1.1615	0.92442	1.4649	465.41	0.059220	174.57	0.077357	0.0068917	41.964	0.023830	396.19	416.64	1.7132	0.86518	1.0937	142.19	23.841	12.078	0.014745
307.03	0.85966	1172.1	0.00085320	246.63	247.36	1.1617	0.92450	1.4652	465.15	0.059773	174.45	0.077334	0.0068849	42.030	0.023793	396.21	416.67	1.7132	0.86536	1.0941	142.17	23.831	12.080	0.014751
307.08	0.86097	1171.8	0.00085336	246.71	247.44	1.1620	0.92458	1.4654	464.90	0.060326	174.33	0.077310	0.0068780	42.096	0.023755	396.24	416.69	1.7132	0.86554	1.0945	142.16	23.821	12.083	0.014757
307.14	0.86227	1171.6	0.00085352	246.78	247.52	1.1622	0.92466	1.4657	464.65	0.060879	174.21	0.077287	0.0068711	42.162	0.023718	396.27	416.72	1.7131	0.86572	1.0949	142.14	23.811	12.085	0.014762
307.19	0.86357	1171.4	0.00085368	246.86	247.60	1.1625	0.92474	1.4660	464.40	0.061432	174.10	0.077264	0.0068643	42.227	0.023681	396.29	416.74	1.7131	0.86589	1.0953	142.13	23.801	12.088	0.014768
307.24	0.86487	1171.2	0.00085384	246.94	247.68	1.1627	0.92482	1.4662	464.14	0.061986	173.98	0.077241	0.0068574	42.293	0.023644	396.32	416.77	1.7131	0.86607	1.0958	142.12	23.791	12.090	0.014774
307.30	0.86617	1171.0	0.00085400	247.02	247.76	1.1630	0.92490	1.4665	463.89	0.062540	173.86	0.077218	0.0068506	42.359	0.023608	396.34	416.79	1.7131	0.86625	1.0962	142.10	23.781	12.093	0.014780
307.35	0.86747	1170.7	0.00085416	247.09	247.83	1.1633	0.92498	1.4668	463.64	0.063094	173.74	0.077195	0.0068437	42.425	0.023571	396.37	416.82	1.7131	0.86642	1.0966	142.09	23.771	12.095	0.014786
307.40	0.86877	1170.5	0.00085432	247.17	247.91	1.1635	0.92506	1.4671	463.39	0.063649	173.63	0.077172	0.0068369	42.491	0.023534	396.40	416.84	1.7130	0.86660	1.0970	142.07	23.761	12.098	0.014792
307.46	0.87007	1170.3	0.00085447	247.25	247.99	1.1638	0.92513	1.4673	463.14	0.064204	173.51	0.077149	0.0068301	42.557	0.023498	396.42	416.87	1.7130	0.86678	1.0974	142.06	23.752	12.100	0.014798
307.51	0.87137	1170.1	0.00085463	247.33	248.07	1.1640	0.92521	1.4676	462.89	0.064759	173.39	0.077126	0.0068233	42.623	0.023462	396.45	416.89	1.7130	0.86695	1.0978	142.04	23.742	12.103	0.014804
307.57	0.87267	1169.9	0.00085479	247.40	248.15	1.1643	0.92529	1.4679	462.64	0.065314	173.28	0.077104	0.0068165	42.689	0.023425	396.47	416.92	1.7130	0.86713	1.0982	142.03	23.732	12.105	0.014810
307.62	0.87397	1169.7	0.00085495	247.48	248.23	1.1645	0.92537	1.4682	462.39	0.065870	173.16	0.077081	0.0068097	42.755	0.023389	396.50	416.94	1.7130	0.86731	1.0987	142.01	23.722	12.108	0.014815
307.67	0.87527	1169.4	0.00085511	247.56	248.31	1.1648	0.92545	1.4684	462.14	0.066425	173.04	0.077058	0.0068029	42.821	0.023353	396.53	416.97	1.7129	0.86748	1.0991	142.00	23.713	12.110	0.014821
307.73	0.87657	1169.2	0.00085527	247.63	248.38	1.1650	0.92553	1.4687	461.89	0.066981	172.93	0.077035	0.0067962	42.887	0.023317	396.55	416.99	1.7129	0.86766	1.0995	141.98	23.703	12.113	0.014827
307.78	0.87787	1169.0	0.00085542	247.71	248.46	1.1653	0.92560	1.4690	461.64	0.067538	172.81	0.077012	0.0067894	42.953	0.023281	396.58	417.02	1.7129	0.86783	1.0999	141.97	23.693	12.115	0.014833
307.83	0.87918	1168.8	0.00085558	247.79	248.54	1.1655	0.92568	1.4692	461.39	0.068094	172.69	0.076989	0.0067827	43.019	0.023246	396.60	417.04	1.7129	0.86801	1.1003	141.95	23.684	12.118	0.014839
307.89	0.88048	1168.6	0.00085574	247.86	248.62	1.1658	0.92576	1.4695	461.14	0.068651	172.58	0.076967	0.0067759	43.085	0.023210	396.63	417.07	1.7129	0.86818	1.1007	141.94	23.674	12.120	0.014845
307.94	0.88178	1168.4	0.00085590	247.94	248.70	1.1660	0.92584	1.4698	460.89	0.069208	172.46	0.076944	0.0067692	43.151	0.023174	396.66	417.09	1.7129	0.86836	1.1012	141.92	23.665	12.122	0.014851
307.99	0.88308	1168.1	0.00085606	248.02	248.77	1.1663	0.92592	1.4701	460.64	0.069766	172.35	0.076921	0.0067625	43.217	0.023139	396.68	417.11	1.7128	0.86853	1.1016	141.91	23.655	12.125	0.014857
308.04	0.88438	1167.9	0.00085621	248.09	248.85	1.1665	0.92599	1.4703	460.40	0.070323	172.23	0.076899	0.0067557	43.283	0.023104	396.71	417.14	1.7128	0.86871	1.1020	141.89	23.645	12.127	0.014862
308.10	0.88568	1167.7	0.00085637	248.17	248.93	1.1668	0.92607	1.4706	460.15	0.070881	172.12	0.076876	0.0067490	43.349	0.023068	396.73	417.16	1.7128	0.86888	1.1024	141.88	23.636	12.130	0.014868
308.15	0.88698	1167.5	0.00085653	248.25	249.01	1.1670	0.92615	1.4709	459.90	0.071439	172.00	0.076853	0.0067423	43.416	0.023033	396.76	417.19	1.7128	0.86906	1.1028	141.86	23.626	12.132	0.014874
