Temperature (K)	Pressure (MPa)	Density (l, kg/m3)	Volume (l, m3/kg)	Internal Energy (l, kJ/kg)	Enthalpy (l, kJ/kg)	Entropy (l, J/g*K)	Cv (l, J/g*K)	Cp (l, J/g*K)	Sound Spd. (l, m/s)	Joule-Thomson (l, K/MPa)	Viscosity (l, uPa*s)	Therm. Cond. (l, W/m*K)	Surf. Tension (l, N/m)	Density (v, kg/m3)	Volume (v, m3/kg)	Internal Energy (v, kJ/kg)	Enthalpy (v, kJ/kg)	Entropy (v, J/g*K)	Cv (v, J/g*K)	Cp (v, J/g*K)	Sound Spd. (v, m/s)	Joule-Thomson (v, K/MPa)	Viscosity (v, uPa*s)	Therm. Cond. (v, W/m*K)
178.78	0.0010000	1567.5	0.00063797	82.036	82.037	0.47333	0.79105	1.1864	1074.5	-0.37478	1539.2	0.13986	0.025905	0.068761	14.543	325.61	340.16	1.9171	0.52387	0.60676	129.67	246.85	7.1838	0.0037958
180.42	0.0011750	1563.1	0.00063975	83.985	83.986	0.48418	0.79132	1.1874	1066.2	-0.37331	1459.1	0.13888	0.025635	0.080075	12.488	326.46	341.13	1.9094	0.52771	0.61072	130.19	230.33	7.2487	0.0039274
181.87	0.0013500	1559.3	0.00064133	85.699	85.700	0.49365	0.79165	1.1883	1058.8	-0.37197	1394.5	0.13804	0.025398	0.091289	10.954	327.20	341.99	1.9029	0.53107	0.61420	130.64	217.11	7.3056	0.0040431
183.16	0.0015250	1555.8	0.00064275	87.233	87.234	0.50205	0.79203	1.1892	1052.3	-0.37073	1340.8	0.13728	0.025187	0.10242	9.7642	327.87	342.76	1.8972	0.53408	0.61732	131.04	206.20	7.3565	0.0041465
184.32	0.0017000	1552.7	0.00064404	88.622	88.623	0.50961	0.79242	1.1901	1046.4	-0.36958	1295.1	0.13660	0.024996	0.11346	8.8133	328.48	343.46	1.8922	0.53680	0.62014	131.40	197.02	7.4025	0.0042401
185.39	0.0018750	1549.8	0.00064522	89.895	89.896	0.51650	0.79282	1.1909	1040.9	-0.36849	1255.5	0.13598	0.024822	0.12444	8.0357	329.04	344.11	1.8877	0.53929	0.62273	131.72	189.13	7.4446	0.0043258
186.38	0.0020500	1547.2	0.00064633	91.071	91.072	0.52282	0.79323	1.1917	1035.9	-0.36746	1220.8	0.13541	0.024661	0.13536	7.3876	329.56	344.70	1.8836	0.54159	0.62513	132.02	182.27	7.4834	0.0044050
187.30	0.0022250	1544.8	0.00064735	92.164	92.165	0.52867	0.79364	1.1925	1031.3	-0.36649	1189.9	0.13488	0.024511	0.14622	6.8389	330.04	345.26	1.8800	0.54372	0.62735	132.30	176.23	7.5194	0.0044785
188.15	0.0024000	1542.5	0.00064832	93.186	93.188	0.53412	0.79404	1.1933	1027.0	-0.36557	1162.2	0.13439	0.024372	0.15703	6.3682	330.49	345.78	1.8766	0.54571	0.62944	132.56	170.85	7.5530	0.0045472
188.96	0.0025750	1540.3	0.00064923	94.147	94.149	0.53921	0.79444	1.1940	1022.9	-0.36468	1137.2	0.13393	0.024241	0.16779	5.9599	330.92	346.27	1.8734	0.54759	0.63140	132.80	166.03	7.5846	0.0046118
189.72	0.0027500	1538.3	0.00065009	95.055	95.057	0.54401	0.79484	1.1947	1019.1	-0.36384	1114.4	0.13350	0.024118	0.17850	5.6022	331.32	346.73	1.8706	0.54935	0.63325	133.03	161.67	7.6144	0.0046728
190.44	0.0029250	1536.3	0.00065091	95.915	95.917	0.54853	0.79523	1.1954	1015.4	-0.36302	1093.5	0.13309	0.024001	0.18917	5.2862	331.70	347.17	1.8679	0.55102	0.63501	133.24	157.70	7.6425	0.0047305
191.12	0.0031000	1534.5	0.00065169	96.732	96.734	0.55282	0.79561	1.1961	1012.0	-0.36224	1074.2	0.13270	0.023890	0.19980	5.0049	332.07	347.58	1.8653	0.55261	0.63668	133.44	154.07	7.6693	0.0047853
191.78	0.0032750	1532.7	0.00065243	97.512	97.514	0.55689	0.79599	1.1967	1008.7	-0.36148	1056.4	0.13233	0.023785	0.21040	4.7529	332.42	347.98	1.8629	0.55413	0.63828	133.64	150.73	7.6948	0.0048376
192.40	0.0034500	1531.0	0.00065315	98.257	98.260	0.56077	0.79636	1.1973	1005.6	-0.36075	1039.8	0.13198	0.023684	0.22095	4.5258	332.75	348.36	1.8607	0.55557	0.63981	133.82	147.64	7.7191	0.0048876
192.99	0.0036250	1529.4	0.00065383	98.972	98.974	0.56448	0.79672	1.1979	1002.6	-0.36005	1024.3	0.13164	0.023588	0.23148	4.3201	333.07	348.73	1.8586	0.55696	0.64127	133.99	144.78	7.7424	0.0049354
193.57	0.0038000	1527.9	0.00065449	99.658	99.660	0.56803	0.79708	1.1985	999.72	-0.35936	1009.7	0.13132	0.023495	0.24197	4.1328	333.38	349.08	1.8566	0.55829	0.64268	134.16	142.12	7.7647	0.0049814
194.12	0.0039750	1526.4	0.00065513	100.32	100.32	0.57143	0.79743	1.1991	996.96	-0.35870	996.10	0.13101	0.023407	0.25243	3.9615	333.67	349.42	1.8547	0.55957	0.64403	134.32	139.63	7.7862	0.0050256
194.65	0.0041500	1525.0	0.00065575	100.95	100.96	0.57470	0.79777	1.1997	994.31	-0.35805	983.23	0.13072	0.023321	0.26286	3.8043	333.96	349.75	1.8529	0.56080	0.64534	134.47	137.30	7.8068	0.0050681
195.16	0.0043250	1523.6	0.00065634	101.57	101.57	0.57785	0.79811	1.2002	991.74	-0.35742	971.08	0.13043	0.023239	0.27326	3.6595	334.23	350.06	1.8511	0.56199	0.64660	134.62	135.11	7.8268	0.0051092
195.65	0.0045000	1522.3	0.00065692	102.16	102.16	0.58089	0.79844	1.2008	989.27	-0.35681	959.57	0.13016	0.023159	0.28364	3.5256	334.50	350.37	1.8495	0.56314	0.64782	134.76	133.05	7.8460	0.0051489
196.13	0.0046750	1521.0	0.00065748	102.74	102.74	0.58382	0.79876	1.2013	986.88	-0.35621	948.64	0.12989	0.023082	0.29399	3.4015	334.76	350.66	1.8479	0.56425	0.64900	134.90	131.10	7.8646	0.0051873
196.60	0.0048500	1519.7	0.00065802	103.29	103.30	0.58666	0.79908	1.2018	984.56	-0.35562	938.25	0.12963	0.023007	0.30431	3.2861	335.01	350.95	1.8464	0.56533	0.65015	135.03	129.26	7.8827	0.0052245
197.05	0.0050250	1518.5	0.00065855	103.83	103.84	0.58941	0.79940	1.2023	982.32	-0.35505	928.35	0.12938	0.022935	0.31462	3.1785	335.25	351.23	1.8449	0.56637	0.65126	135.16	127.51	7.9001	0.0052606
197.48	0.0052000	1517.3	0.00065906	104.36	104.36	0.59207	0.79971	1.2028	980.14	-0.35449	918.89	0.12914	0.022865	0.32490	3.0779	335.49	351.50	1.8435	0.56739	0.65235	135.28	125.85	7.9171	0.0052956
197.91	0.0053750	1516.2	0.00065956	104.87	104.87	0.59465	0.80001	1.2033	978.02	-0.35395	909.86	0.12891	0.022797	0.33515	2.9837	335.72	351.76	1.8421	0.56838	0.65340	135.40	124.27	7.9336	0.0053297
198.32	0.0055500	1515.0	0.00066005	105.37	105.37	0.59716	0.80031	1.2038	975.97	-0.35341	901.20	0.12868	0.022731	0.34539	2.8953	335.95	352.01	1.8408	0.56934	0.65443	135.52	122.77	7.9496	0.0053628
198.72	0.0057250	1513.9	0.00066053	105.85	105.85	0.59960	0.80060	1.2042	973.97	-0.35289	892.90	0.12846	0.022666	0.35560	2.8121	336.16	352.26	1.8396	0.57027	0.65543	135.63	121.33	7.9652	0.0053951
199.11	0.0059000	1512.9	0.00066099	106.32	106.33	0.60197	0.80089	1.2047	972.02	-0.35237	884.93	0.12824	0.022603	0.36579	2.7338	336.38	352.51	1.8384	0.57118	0.65641	135.74	119.96	7.9803	0.0054266
199.50	0.0060750	1511.8	0.00066145	106.78	106.79	0.60428	0.80118	1.2051	970.12	-0.35187	877.27	0.12803	0.022542	0.37597	2.6598	336.59	352.74	1.8372	0.57207	0.65736	135.84	118.64	7.9952	0.0054573
199.87	0.0062500	1510.8	0.00066189	107.23	107.24	0.60653	0.80146	1.2056	968.26	-0.35137	869.89	0.12783	0.022483	0.38613	2.5898	336.79	352.98	1.8360	0.57294	0.65829	135.95	117.38	8.0096	0.0054872
200.23	0.0064250	1509.8	0.00066232	107.67	107.67	0.60872	0.80173	1.2060	966.45	-0.35088	862.79	0.12763	0.022424	0.39626	2.5236	336.99	353.20	1.8349	0.57379	0.65920	136.05	116.17	8.0237	0.0055165
200.59	0.0066000	1508.9	0.00066275	108.10	108.10	0.61087	0.80200	1.2065	964.69	-0.35040	855.93	0.12743	0.022367	0.40638	2.4607	337.18	353.42	1.8339	0.57461	0.66009	136.15	115.01	8.0375	0.0055451
200.94	0.0067750	1507.9	0.00066317	108.52	108.52	0.61296	0.80227	1.2069	962.96	-0.34993	849.31	0.12724	0.022312	0.41648	2.4011	337.37	353.64	1.8328	0.57543	0.66097	136.24	113.89	8.0509	0.0055730
201.28	0.0069500	1507.0	0.00066357	108.93	108.94	0.61500	0.80254	1.2073	961.27	-0.34947	842.92	0.12706	0.022257	0.42657	2.3443	337.56	353.85	1.8318	0.57622	0.66182	136.34	112.81	8.0641	0.0056004
201.61	0.0071250	1506.1	0.00066398	109.33	109.34	0.61700	0.80280	1.2077	959.62	-0.34902	836.73	0.12688	0.022204	0.43664	2.2902	337.74	354.06	1.8308	0.57700	0.66266	136.43	111.78	8.0770	0.0056272
201.94	0.0073000	1505.2	0.00066437	109.73	109.73	0.61896	0.80305	1.2081	958.00	-0.34857	830.74	0.12670	0.022152	0.44669	2.2387	337.92	354.26	1.8299	0.57776	0.66348	136.52	110.78	8.0896	0.0056534
202.26	0.0074750	1504.3	0.00066475	110.12	110.12	0.62087	0.80331	1.2085	956.41	-0.34813	824.93	0.12652	0.022101	0.45673	2.1895	338.10	354.46	1.8290	0.57850	0.66429	136.60	109.81	8.1020	0.0056792
202.57	0.0076500	1503.5	0.00066513	110.49	110.50	0.62275	0.80356	1.2089	954.86	-0.34769	819.31	0.12635	0.022051	0.46675	2.1425	338.27	354.66	1.8281	0.57923	0.66508	136.69	108.88	8.1141	0.0057044
202.88	0.0078250	1502.6	0.00066551	110.87	110.87	0.62458	0.80380	1.2093	953.34	-0.34726	813.85	0.12619	0.022002	0.47675	2.0975	338.44	354.85	1.8272	0.57995	0.66586	136.77	107.98	8.1260	0.0057292
203.18	0.0080000	1501.8	0.00066587	111.23	111.24	0.62638	0.80405	1.2096	951.84	-0.34684	808.54	0.12602	0.021953	0.48675	2.0545	338.61	355.04	1.8263	0.58066	0.66662	136.85	107.10	8.1376	0.0057535
203.48	0.0081750	1501.0	0.00066623	111.59	111.60	0.62815	0.80429	1.2100	950.38	-0.34642	803.39	0.12586	0.021906	0.49672	2.0132	338.77	355.23	1.8255	0.58135	0.66738	136.93	106.26	8.1491	0.0057773
203.77	0.0083500	1500.2	0.00066659	111.94	111.95	0.62988	0.80453	1.2104	948.94	-0.34601	798.38	0.12570	0.021860	0.50669	1.9736	338.93	355.41	1.8247	0.58203	0.66811	137.01	105.44	8.1603	0.0058007
204.06	0.0085250	1499.4	0.00066693	112.29	112.30	0.63158	0.80476	1.2107	947.52	-0.34560	793.51	0.12555	0.021814	0.51664	1.9356	339.09	355.59	1.8239	0.58270	0.66884	137.09	104.64	8.1714	0.0058238
204.34	0.0087000	1498.6	0.00066728	112.63	112.64	0.63325	0.80499	1.2111	946.13	-0.34520	788.77	0.12540	0.021769	0.52658	1.8991	339.24	355.76	1.8231	0.58336	0.66956	137.16	103.87	8.1822	0.0058464
204.62	0.0088750	1497.9	0.00066762	112.97	112.97	0.63489	0.80522	1.2115	944.77	-0.34481	784.15	0.12525	0.021725	0.53650	1.8639	339.40	355.94	1.8223	0.58400	0.67026	137.24	103.12	8.1929	0.0058687
204.89	0.0090500	1497.1	0.00066795	113.30	113.30	0.63650	0.80545	1.2118	943.42	-0.34442	779.65	0.12510	0.021682	0.54641	1.8301	339.55	356.11	1.8216	0.58464	0.67095	137.31	102.39	8.2033	0.0058905
205.16	0.0092250	1496.4	0.00066828	113.62	113.63	0.63809	0.80567	1.2122	942.10	-0.34403	775.26	0.12496	0.021640	0.55631	1.7976	339.69	356.28	1.8208	0.58526	0.67164	137.38	101.68	8.2136	0.0059121
205.42	0.0094000	1495.7	0.00066860	113.94	113.95	0.63965	0.80589	1.2125	940.80	-0.34365	770.97	0.12482	0.021598	0.56620	1.7662	339.84	356.44	1.8201	0.58588	0.67231	137.45	101.00	8.2238	0.0059333
205.68	0.0095750	1495.0	0.00066892	114.26	114.26	0.64118	0.80611	1.2128	939.53	-0.34327	766.80	0.12468	0.021556	0.57607	1.7359	339.98	356.60	1.8194	0.58649	0.67297	137.52	100.33	8.2338	0.0059542
205.93	0.0097500	1494.2	0.00066923	114.57	114.57	0.64269	0.80633	1.2132	938.27	-0.34290	762.72	0.12454	0.021516	0.58593	1.7067	340.12	356.76	1.8187	0.58709	0.67362	137.58	99.674	8.2436	0.0059748
206.19	0.0099250	1493.6	0.00066954	114.87	114.88	0.64417	0.80654	1.2135	937.03	-0.34253	758.73	0.12440	0.021476	0.59578	1.6785	340.26	356.92	1.8181	0.58768	0.67427	137.65	99.038	8.2533	0.0059950
206.44	0.010100	1492.9	0.00066985	115.17	115.18	0.64563	0.80675	1.2138	935.81	-0.34216	754.84	0.12427	0.021436	0.60562	1.6512	340.40	357.08	1.8174	0.58826	0.67491	137.72	98.419	8.2628	0.0060150
206.68	0.010275	1492.2	0.00067015	115.47	115.48	0.64707	0.80696	1.2141	934.60	-0.34180	751.03	0.12414	0.021398	0.61545	1.6248	340.54	357.23	1.8168	0.58883	0.67553	137.78	97.815	8.2722	0.0060347
206.92	0.010450	1491.5	0.00067045	115.76	115.77	0.64848	0.80717	1.2145	933.42	-0.34145	747.31	0.12401	0.021359	0.62527	1.5993	340.67	357.38	1.8161	0.58939	0.67615	137.84	97.225	8.2815	0.0060541
207.16	0.010625	1490.9	0.00067074	116.05	116.06	0.64988	0.80737	1.2148	932.25	-0.34109	743.66	0.12388	0.021322	0.63508	1.5746	340.80	357.53	1.8155	0.58995	0.67676	137.90	96.650	8.2906	0.0060732
207.39	0.010800	1490.2	0.00067103	116.34	116.35	0.65126	0.80757	1.2151	931.10	-0.34074	740.10	0.12376	0.021285	0.64487	1.5507	340.93	357.68	1.8149	0.59050	0.67737	137.97	96.089	8.2996	0.0060921
207.63	0.010975	1489.6	0.00067132	116.62	116.63	0.65261	0.80778	1.2154	929.96	-0.34040	736.61	0.12363	0.021248	0.65466	1.5275	341.06	357.83	1.8143	0.59104	0.67796	138.02	95.540	8.3085	0.0061107
207.85	0.011150	1489.0	0.00067160	116.90	116.90	0.65395	0.80797	1.2157	928.84	-0.34005	733.19	0.12351	0.021212	0.66443	1.5050	341.19	357.97	1.8137	0.59158	0.67855	138.08	95.004	8.3172	0.0061291
208.08	0.011325	1488.4	0.00067188	117.17	117.18	0.65527	0.80817	1.2160	927.73	-0.33971	729.84	0.12339	0.021176	0.67420	1.4832	341.31	358.11	1.8132	0.59211	0.67913	138.14	94.480	8.3259	0.0061472
208.30	0.011500	1487.7	0.00067216	117.44	117.45	0.65657	0.80836	1.2163	926.64	-0.33938	726.55	0.12327	0.021141	0.68396	1.4621	341.44	358.25	1.8126	0.59263	0.67971	138.20	93.968	8.3344	0.0061651
208.52	0.011675	1487.1	0.00067243	117.71	117.72	0.65785	0.80856	1.2166	925.57	-0.33905	723.34	0.12316	0.021106	0.69370	1.4415	341.56	358.39	1.8120	0.59314	0.68028	138.26	93.467	8.3428	0.0061828
208.74	0.011850	1486.5	0.00067270	117.97	117.98	0.65912	0.80875	1.2169	924.50	-0.33872	720.18	0.12304	0.021072	0.70344	1.4216	341.68	358.53	1.8115	0.59365	0.68084	138.31	92.976	8.3511	0.0062003
208.95	0.012025	1485.9	0.00067297	118.23	118.24	0.66037	0.80894	1.2172	923.45	-0.33839	717.08	0.12293	0.021038	0.71317	1.4022	341.80	358.66	1.8110	0.59416	0.68139	138.37	92.496	8.3593	0.0062176
209.17	0.012200	1485.4	0.00067324	118.49	118.50	0.66160	0.80913	1.2175	922.42	-0.33806	714.04	0.12282	0.021004	0.72288	1.3833	341.92	358.80	1.8104	0.59466	0.68194	138.42	92.026	8.3674	0.0062346
209.37	0.012375	1484.8	0.00067350	118.75	118.76	0.66282	0.80931	1.2178	921.39	-0.33774	711.06	0.12270	0.020971	0.73259	1.3650	342.04	358.93	1.8099	0.59515	0.68249	138.47	91.566	8.3754	0.0062515
209.58	0.012550	1484.2	0.00067376	119.00	119.01	0.66402	0.80950	1.2180	920.38	-0.33743	708.13	0.12259	0.020939	0.74229	1.3472	342.15	359.06	1.8094	0.59563	0.68303	138.53	91.115	8.3834	0.0062681
209.79	0.012725	1483.6	0.00067401	119.25	119.26	0.66521	0.80968	1.2183	919.38	-0.33711	705.26	0.12249	0.020906	0.75198	1.3298	342.26	359.19	1.8089	0.59611	0.68356	138.58	90.673	8.3912	0.0062846
209.99	0.012900	1483.1	0.00067427	119.49	119.50	0.66638	0.80986	1.2186	918.39	-0.33680	702.43	0.12238	0.020874	0.76167	1.3129	342.38	359.31	1.8084	0.59659	0.68408	138.63	90.240	8.3989	0.0063008
210.19	0.013075	1482.5	0.00067452	119.74	119.75	0.66754	0.81004	1.2189	917.41	-0.33649	699.66	0.12227	0.020843	0.77134	1.2964	342.49	359.44	1.8079	0.59706	0.68460	138.68	89.815	8.4065	0.0063169
210.39	0.013250	1482.0	0.00067477	119.98	119.99	0.66869	0.81022	1.2191	916.45	-0.33618	696.93	0.12217	0.020812	0.78101	1.2804	342.60	359.56	1.8074	0.59752	0.68512	138.73	89.398	8.4141	0.0063329
210.58	0.013425	1481.4	0.00067501	120.22	120.23	0.66982	0.81039	1.2194	915.49	-0.33587	694.25	0.12207	0.020781	0.79066	1.2648	342.71	359.69	1.8070	0.59798	0.68563	138.78	88.989	8.4216	0.0063486
210.78	0.013600	1480.9	0.00067526	120.45	120.46	0.67094	0.81057	1.2197	914.55	-0.33557	691.61	0.12196	0.020750	0.80031	1.2495	342.82	359.81	1.8065	0.59844	0.68614	138.83	88.587	8.4289	0.0063642
210.97	0.013775	1480.4	0.00067550	120.69	120.70	0.67205	0.81074	1.2200	913.61	-0.33527	689.02	0.12186	0.020720	0.80995	1.2346	342.92	359.93	1.8060	0.59889	0.68664	138.87	88.193	8.4362	0.0063796
211.16	0.013950	1479.9	0.00067574	120.92	120.93	0.67314	0.81091	1.2202	912.69	-0.33497	686.47	0.12176	0.020690	0.81958	1.2201	343.03	360.05	1.8056	0.59934	0.68713	138.92	87.807	8.4435	0.0063948
211.34	0.014125	1479.3	0.00067598	121.15	121.16	0.67423	0.81108	1.2205	911.77	-0.33468	683.96	0.12166	0.020661	0.82921	1.2060	343.13	360.17	1.8051	0.59978	0.68763	138.97	87.427	8.4506	0.0064099
211.53	0.014300	1478.8	0.00067621	121.37	121.38	0.67530	0.81125	1.2207	910.87	-0.33438	681.49	0.12157	0.020632	0.83883	1.1921	343.24	360.29	1.8047	0.60022	0.68811	139.01	87.054	8.4577	0.0064249
211.71	0.014475	1478.3	0.00067644	121.60	121.61	0.67636	0.81142	1.2210	909.97	-0.33409	679.06	0.12147	0.020603	0.84844	1.1786	343.34	360.40	1.8043	0.60065	0.68859	139.06	86.687	8.4647	0.0064397
211.89	0.014650	1477.8	0.00067667	121.82	121.83	0.67740	0.81158	1.2212	909.09	-0.33380	676.67	0.12137	0.020574	0.85804	1.1655	343.44	360.52	1.8038	0.60108	0.68907	139.10	86.326	8.4716	0.0064543
212.07	0.014825	1477.3	0.00067690	122.04	122.05	0.67844	0.81175	1.2215	908.21	-0.33351	674.31	0.12128	0.020546	0.86763	1.1526	343.54	360.63	1.8034	0.60150	0.68955	139.15	85.972	8.4785	0.0064688
212.25	0.015000	1476.8	0.00067713	122.26	122.27	0.67947	0.81191	1.2218	907.34	-0.33323	671.99	0.12119	0.020518	0.87722	1.1400	343.64	360.74	1.8030	0.60192	0.69002	139.19	85.624	8.4853	0.0064832
212.43	0.015175	1476.3	0.00067735	122.47	122.48	0.68048	0.81207	1.2220	906.48	-0.33295	669.70	0.12109	0.020490	0.88680	1.1277	343.74	360.85	1.8026	0.60234	0.69048	139.23	85.281	8.4920	0.0064974
212.60	0.015350	1475.8	0.00067758	122.69	122.70	0.68149	0.81224	1.2223	905.63	-0.33266	667.45	0.12100	0.020463	0.89637	1.1156	343.84	360.97	1.8022	0.60275	0.69094	139.28	84.944	8.4987	0.0065115
212.78	0.015525	1475.4	0.00067780	122.90	122.91	0.68248	0.81240	1.2225	904.79	-0.33239	665.23	0.12091	0.020435	0.90594	1.1038	343.94	361.07	1.8018	0.60316	0.69140	139.32	84.613	8.5053	0.0065255
212.95	0.015700	1474.9	0.00067802	123.11	123.12	0.68347	0.81255	1.2227	903.95	-0.33211	663.05	0.12082	0.020408	0.91549	1.0923	344.03	361.18	1.8014	0.60357	0.69186	139.36	84.287	8.5118	0.0065393
213.12	0.015875	1474.4	0.00067823	123.32	123.33	0.68445	0.81271	1.2230	903.13	-0.33183	660.89	0.12073	0.020382	0.92504	1.0810	344.13	361.29	1.8010	0.60397	0.69231	139.40	83.966	8.5183	0.0065530
213.29	0.016050	1473.9	0.00067845	123.52	123.53	0.68541	0.81287	1.2232	902.31	-0.33156	658.77	0.12064	0.020355	0.93459	1.0700	344.22	361.40	1.8006	0.60437	0.69275	139.44	83.650	8.5247	0.0065666
213.46	0.016225	1473.5	0.00067866	123.73	123.74	0.68637	0.81302	1.2235	901.49	-0.33129	656.67	0.12056	0.020329	0.94413	1.0592	344.32	361.50	1.8003	0.60476	0.69320	139.48	83.339	8.5310	0.0065800
213.62	0.016400	1473.0	0.00067887	123.93	123.94	0.68732	0.81318	1.2237	900.69	-0.33102	654.60	0.12047	0.020303	0.95366	1.0486	344.41	361.61	1.7999	0.60516	0.69363	139.52	83.033	8.5373	0.0065934
213.78	0.016575	1472.6	0.00067909	124.13	124.14	0.68826	0.81333	1.2239	899.89	-0.33075	652.57	0.12038	0.020277	0.96318	1.0382	344.50	361.71	1.7995	0.60554	0.69407	139.56	82.731	8.5436	0.0066066
213.95	0.016750	1472.1	0.00067929	124.33	124.34	0.68919	0.81348	1.2242	899.10	-0.33048	650.56	0.12030	0.020252	0.97270	1.0281	344.59	361.81	1.7992	0.60593	0.69450	139.60	82.434	8.5497	0.0066197
214.11	0.016925	1471.7	0.00067950	124.53	124.54	0.69011	0.81363	1.2244	898.32	-0.33022	648.57	0.12022	0.020226	0.98221	1.0181	344.69	361.92	1.7988	0.60631	0.69493	139.64	82.141	8.5559	0.0066327
214.27	0.017100	1471.2	0.00067971	124.72	124.73	0.69103	0.81378	1.2246	897.54	-0.32995	646.61	0.12013	0.020201	0.99172	1.0084	344.78	362.02	1.7984	0.60669	0.69536	139.68	81.853	8.5619	0.0066456
214.43	0.017275	1470.8	0.00067991	124.92	124.93	0.69193	0.81393	1.2249	896.77	-0.32969	644.68	0.12005	0.020177	1.0012	0.99879	344.86	362.12	1.7981	0.60707	0.69578	139.72	81.569	8.5680	0.0066584
214.58	0.017450	1470.3	0.00068011	125.11	125.12	0.69283	0.81408	1.2251	896.01	-0.32943	642.78	0.11997	0.020152	1.0107	0.98941	344.95	362.22	1.7977	0.60744	0.69620	139.76	81.289	8.5739	0.0066710
214.74	0.017625	1469.9	0.00068031	125.30	125.31	0.69372	0.81423	1.2253	895.25	-0.32917	640.89	0.11989	0.020127	1.0202	0.98021	345.04	362.32	1.7974	0.60781	0.69662	139.79	81.012	8.5798	0.0066836
214.90	0.017800	1469.5	0.00068051	125.49	125.50	0.69460	0.81437	1.2255	894.50	-0.32892	639.04	0.11981	0.020103	1.0297	0.97118	345.13	362.41	1.7971	0.60818	0.69703	139.83	80.740	8.5857	0.0066961
215.05	0.017975	1469.1	0.00068071	125.68	125.69	0.69548	0.81452	1.2258	893.76	-0.32866	637.20	0.11973	0.020079	1.0391	0.96233	345.21	362.51	1.7967	0.60854	0.69744	139.87	80.472	8.5915	0.0067084
215.20	0.018150	1468.6	0.00068091	125.86	125.88	0.69634	0.81466	1.2260	893.02	-0.32841	635.39	0.11965	0.020055	1.0486	0.95364	345.30	362.61	1.7964	0.60890	0.69785	139.90	80.207	8.5973	0.0067207
215.35	0.018325	1468.2	0.00068110	126.05	126.06	0.69720	0.81481	1.2262	892.29	-0.32815	633.60	0.11957	0.020032	1.0581	0.94511	345.38	362.70	1.7961	0.60926	0.69825	139.94	79.946	8.6030	0.0067329
215.50	0.018500	1467.8	0.00068130	126.23	126.25	0.69806	0.81495	1.2264	891.57	-0.32790	631.83	0.11949	0.020008	1.0675	0.93674	345.47	362.80	1.7957	0.60962	0.69866	139.97	79.688	8.6087	0.0067450
215.65	0.018675	1467.4	0.00068149	126.42	126.43	0.69890	0.81509	1.2266	890.85	-0.32765	630.08	0.11941	0.019985	1.0770	0.92852	345.55	362.89	1.7954	0.60997	0.69905	140.01	79.434	8.6143	0.0067570
215.80	0.018850	1467.0	0.00068168	126.60	126.61	0.69974	0.81523	1.2269	890.13	-0.32741	628.36	0.11934	0.019962	1.0864	0.92045	345.64	362.99	1.7951	0.61032	0.69945	140.04	79.183	8.6199	0.0067689
215.94	0.019025	1466.6	0.00068187	126.78	126.79	0.70057	0.81537	1.2271	889.42	-0.32716	626.65	0.11926	0.019939	1.0959	0.91252	345.72	363.08	1.7948	0.61067	0.69984	140.08	78.935	8.6255	0.0067807
216.09	0.019200	1466.1	0.00068206	126.95	126.97	0.70140	0.81551	1.2273	888.72	-0.32691	624.97	0.11919	0.019916	1.1053	0.90473	345.80	363.17	1.7945	0.61101	0.70024	140.11	78.691	8.6310	0.0067924
216.23	0.019375	1465.7	0.00068225	127.13	127.14	0.70222	0.81565	1.2275	888.02	-0.32667	623.30	0.11911	0.019894	1.1147	0.89708	345.88	363.26	1.7942	0.61136	0.70062	140.15	78.450	8.6364	0.0068040
216.38	0.019550	1465.3	0.00068243	127.31	127.32	0.70303	0.81578	1.2277	887.33	-0.32643	621.66	0.11904	0.019871	1.1242	0.88956	345.96	363.35	1.7939	0.61170	0.70101	140.18	78.212	8.6419	0.0068155
216.52	0.019725	1465.0	0.00068262	127.48	127.49	0.70383	0.81592	1.2279	886.64	-0.32618	620.03	0.11896	0.019849	1.1336	0.88217	346.04	363.44	1.7936	0.61203	0.70139	140.21	77.977	8.6472	0.0068270
216.66	0.019900	1464.6	0.00068280	127.65	127.67	0.70463	0.81605	1.2281	885.96	-0.32594	618.42	0.11889	0.019827	1.1430	0.87491	346.12	363.53	1.7933	0.61237	0.70178	140.25	77.745	8.6526	0.0068384
216.80	0.020075	1464.2	0.00068298	127.83	127.84	0.70543	0.81619	1.2283	885.28	-0.32570	616.83	0.11882	0.019805	1.1524	0.86777	346.20	363.62	1.7930	0.61270	0.70215	140.28	77.515	8.6579	0.0068497
216.94	0.020250	1463.8	0.00068316	128.00	128.01	0.70621	0.81632	1.2285	884.61	-0.32547	615.26	0.11875	0.019784	1.1618	0.86074	346.28	363.71	1.7927	0.61304	0.70253	140.31	77.289	8.6631	0.0068609
217.08	0.020425	1463.4	0.00068334	128.17	128.18	0.70699	0.81645	1.2287	883.94	-0.32523	613.70	0.11867	0.019762	1.1712	0.85384	346.36	363.80	1.7924	0.61336	0.70290	140.34	77.065	8.6683	0.0068720
217.21	0.020600	1463.0	0.00068352	128.33	128.35	0.70777	0.81659	1.2289	883.28	-0.32499	612.16	0.11860	0.019741	1.1806	0.84705	346.43	363.88	1.7921	0.61369	0.70328	140.37	76.844	8.6735	0.0068831
217.35	0.020775	1462.6	0.00068370	128.50	128.52	0.70854	0.81672	1.2292	882.62	-0.32476	610.64	0.11853	0.019720	1.1900	0.84037	346.51	363.97	1.7918	0.61402	0.70364	140.41	76.626	8.6787	0.0068941
217.49	0.020950	1462.2	0.00068388	128.67	128.68	0.70930	0.81685	1.2294	881.97	-0.32453	609.13	0.11846	0.019698	1.1993	0.83379	346.59	364.06	1.7916	0.61434	0.70401	140.44	76.410	8.6838	0.0069050
217.62	0.021125	1461.9	0.00068405	128.83	128.85	0.71006	0.81698	1.2296	881.32	-0.32430	607.64	0.11839	0.019677	1.2087	0.82733	346.66	364.14	1.7913	0.61466	0.70438	140.47	76.197	8.6889	0.0069158
217.75	0.021300	1461.5	0.00068423	129.00	129.01	0.71082	0.81711	1.2298	880.68	-0.32406	606.17	0.11833	0.019657	1.2181	0.82096	346.74	364.23	1.7910	0.61498	0.70474	140.50	75.986	8.6939	0.0069266
217.89	0.021475	1461.1	0.00068440	129.16	129.17	0.71156	0.81724	1.2300	880.04	-0.32383	604.71	0.11826	0.019636	1.2274	0.81470	346.81	364.31	1.7907	0.61529	0.70510	140.53	75.778	8.6989	0.0069373
218.02	0.021650	1460.8	0.00068458	129.32	129.34	0.71231	0.81736	1.2302	879.41	-0.32361	603.27	0.11819	0.019616	1.2368	0.80853	346.89	364.39	1.7905	0.61561	0.70546	140.56	75.572	8.7039	0.0069479
218.15	0.021825	1460.4	0.00068475	129.48	129.50	0.71304	0.81749	1.2303	878.78	-0.32338	601.84	0.11812	0.019595	1.2462	0.80246	346.96	364.48	1.7902	0.61592	0.70581	140.59	75.368	8.7088	0.0069584
218.28	0.022000	1460.0	0.00068492	129.64	129.66	0.71377	0.81762	1.2305	878.15	-0.32315	600.43	0.11806	0.019575	1.2555	0.79649	347.04	364.56	1.7899	0.61623	0.70617	140.62	75.167	8.7137	0.0069689
218.41	0.022175	1459.7	0.00068509	129.80	129.82	0.71450	0.81774	1.2307	877.53	-0.32293	599.03	0.11799	0.019555	1.2649	0.79060	347.11	364.64	1.7897	0.61654	0.70652	140.65	74.968	8.7186	0.0069793
218.53	0.022350	1459.3	0.00068526	129.96	129.97	0.71522	0.81787	1.2309	876.91	-0.32270	597.64	0.11792	0.019535	1.2742	0.78481	347.18	364.72	1.7894	0.61685	0.70687	140.68	74.771	8.7234	0.0069896
218.66	0.022525	1459.0	0.00068542	130.11	130.13	0.71594	0.81799	1.2311	876.30	-0.32248	596.27	0.11786	0.019515	1.2835	0.77910	347.25	364.80	1.7892	0.61715	0.70722	140.71	74.576	8.7282	0.0069999
218.79	0.022700	1458.6	0.00068559	130.27	130.29	0.71665	0.81811	1.2313	875.69	-0.32226	594.91	0.11779	0.019495	1.2929	0.77348	347.32	364.88	1.7889	0.61745	0.70757	140.73	74.384	8.7330	0.0070101
218.91	0.022875	1458.2	0.00068576	130.43	130.44	0.71736	0.81824	1.2315	875.08	-0.32203	593.57	0.11773	0.019476	1.3022	0.76794	347.40	364.96	1.7886	0.61775	0.70791	140.76	74.193	8.7377	0.0070203
219.04	0.023050	1457.9	0.00068592	130.58	130.60	0.71806	0.81836	1.2317	874.48	-0.32181	592.24	0.11766	0.019456	1.3115	0.76248	347.47	365.04	1.7884	0.61805	0.70825	140.79	74.005	8.7424	0.0070304
219.16	0.023225	1457.5	0.00068609	130.73	130.75	0.71876	0.81848	1.2319	873.88	-0.32160	590.92	0.11760	0.019437	1.3208	0.75710	347.54	365.12	1.7882	0.61835	0.70859	140.82	73.818	8.7471	0.0070404
219.29	0.023400	1457.2	0.00068625	130.88	130.90	0.71945	0.81860	1.2321	873.29	-0.32138	589.61	0.11754	0.019418	1.3301	0.75180	347.61	365.20	1.7879	0.61865	0.70893	140.85	73.634	8.7518	0.0070504
219.41	0.023575	1456.9	0.00068641	131.04	131.05	0.72014	0.81872	1.2323	872.70	-0.32116	588.32	0.11748	0.019399	1.3395	0.74657	347.68	365.28	1.7877	0.61894	0.70927	140.87	73.451	8.7564	0.0070603
219.53	0.023750	1456.5	0.00068657	131.19	131.20	0.72083	0.81884	1.2324	872.11	-0.32094	587.04	0.11741	0.019380	1.3488	0.74142	347.74	365.35	1.7874	0.61923	0.70961	140.90	73.271	8.7610	0.0070701
219.65	0.023925	1456.2	0.00068673	131.33	131.35	0.72151	0.81896	1.2326	871.53	-0.32073	585.77	0.11735	0.019361	1.3581	0.73635	347.81	365.43	1.7872	0.61952	0.70994	140.93	73.092	8.7656	0.0070799
219.77	0.024100	1455.8	0.00068689	131.48	131.50	0.72218	0.81908	1.2328	870.95	-0.32051	584.51	0.11729	0.019342	1.3674	0.73134	347.88	365.51	1.7869	0.61981	0.71027	140.96	72.915	8.7701	0.0070896
219.89	0.024275	1455.5	0.00068705	131.63	131.65	0.72285	0.81920	1.2330	870.37	-0.32030	583.26	0.11723	0.019324	1.3766	0.72640	347.95	365.58	1.7867	0.62010	0.71060	140.98	72.740	8.7746	0.0070993
220.01	0.024450	1455.2	0.00068721	131.78	131.79	0.72352	0.81932	1.2332	869.80	-0.32009	582.03	0.11717	0.019305	1.3859	0.72154	348.02	365.66	1.7865	0.62039	0.71093	141.01	72.567	8.7791	0.0071089
220.13	0.024625	1454.8	0.00068737	131.92	131.94	0.72418	0.81943	1.2334	869.23	-0.31987	580.81	0.11711	0.019287	1.3952	0.71674	348.08	365.73	1.7863	0.62067	0.71126	141.03	72.395	8.7835	0.0071185
220.25	0.024800	1454.5	0.00068752	132.07	132.09	0.72484	0.81955	1.2335	868.66	-0.31966	579.59	0.11705	0.019268	1.4045	0.71200	348.15	365.81	1.7860	0.62095	0.71158	141.06	72.225	8.7880	0.0071280
220.36	0.024975	1454.2	0.00068768	132.21	132.23	0.72550	0.81966	1.2337	868.10	-0.31945	578.39	0.11699	0.019250	1.4138	0.70733	348.22	365.88	1.7858	0.62123	0.71191	141.09	72.057	8.7924	0.0071374
220.48	0.025150	1453.8	0.00068783	132.36	132.37	0.72615	0.81978	1.2339	867.54	-0.31924	577.20	0.11693	0.019232	1.4230	0.70272	348.28	365.96	1.7856	0.62151	0.71223	141.11	71.890	8.7968	0.0071468
220.60	0.025325	1453.5	0.00068799	132.50	132.52	0.72679	0.81989	1.2341	866.99	-0.31903	576.02	0.11687	0.019214	1.4323	0.69818	348.35	366.03	1.7853	0.62179	0.71255	141.14	71.725	8.8011	0.0071561
220.71	0.025500	1453.2	0.00068814	132.64	132.66	0.72744	0.82001	1.2343	866.43	-0.31883	574.85	0.11681	0.019196	1.4416	0.69369	348.41	366.10	1.7851	0.62207	0.71287	141.16	71.562	8.8054	0.0071654
220.83	0.025675	1452.9	0.00068829	132.78	132.80	0.72808	0.82012	1.2344	865.88	-0.31862	573.69	0.11675	0.019179	1.4508	0.68926	348.48	366.18	1.7849	0.62234	0.71319	141.19	71.400	8.8097	0.0071747
220.94	0.025850	1452.5	0.00068844	132.92	132.94	0.72871	0.82023	1.2346	865.34	-0.31841	572.54	0.11669	0.019161	1.4601	0.68489	348.54	366.25	1.7847	0.62262	0.71350	141.21	71.240	8.8140	0.0071839
221.05	0.026025	1452.2	0.00068860	133.06	133.08	0.72934	0.82035	1.2348	864.79	-0.31821	571.40	0.11664	0.019144	1.4693	0.68058	348.61	366.32	1.7845	0.62289	0.71382	141.24	71.081	8.8183	0.0071930
221.17	0.026200	1451.9	0.00068875	133.20	133.22	0.72997	0.82046	1.2350	864.25	-0.31800	570.27	0.11658	0.019126	1.4786	0.67633	348.67	366.39	1.7843	0.62316	0.71413	141.26	70.924	8.8225	0.0072021
221.28	0.026375	1451.6	0.00068890	133.34	133.36	0.73059	0.82057	1.2351	863.72	-0.31780	569.15	0.11652	0.019109	1.4878	0.67213	348.73	366.46	1.7840	0.62343	0.71444	141.29	70.768	8.8267	0.0072111
221.39	0.026550	1451.3	0.00068904	133.48	133.49	0.73121	0.82068	1.2353	863.18	-0.31760	568.04	0.11646	0.019092	1.4971	0.66798	348.80	366.53	1.7838	0.62370	0.71475	141.31	70.613	8.8309	0.0072201
221.50	0.026725	1451.0	0.00068919	133.61	133.63	0.73183	0.82079	1.2355	862.65	-0.31739	566.94	0.11641	0.019074	1.5063	0.66388	348.86	366.60	1.7836	0.62396	0.71506	141.33	70.460	8.8350	0.0072291
221.61	0.026900	1450.7	0.00068934	133.75	133.77	0.73244	0.82090	1.2356	862.12	-0.31719	565.85	0.11635	0.019057	1.5155	0.65984	348.92	366.67	1.7834	0.62423	0.71536	141.36	70.309	8.8392	0.0072379
221.72	0.027075	1450.4	0.00068949	133.88	133.90	0.73306	0.82101	1.2358	861.60	-0.31699	564.77	0.11630	0.019040	1.5247	0.65585	348.99	366.74	1.7832	0.62449	0.71567	141.38	70.159	8.8433	0.0072468
221.83	0.027250	1450.0	0.00068963	134.02	134.04	0.73366	0.82112	1.2360	861.08	-0.31679	563.69	0.11624	0.019023	1.5340	0.65190	349.05	366.81	1.7830	0.62476	0.71597	141.41	70.010	8.8474	0.0072556
221.94	0.027425	1449.7	0.00068978	134.15	134.17	0.73426	0.82123	1.2362	860.56	-0.31659	562.63	0.11619	0.019007	1.5432	0.64801	349.11	366.88	1.7828	0.62502	0.71628	141.43	69.862	8.8514	0.0072644
222.04	0.027600	1449.4	0.00068992	134.28	134.30	0.73486	0.82133	1.2363	860.04	-0.31639	561.57	0.11613	0.018990	1.5524	0.64416	349.17	366.95	1.7826	0.62528	0.71658	141.45	69.716	8.8555	0.0072731
222.15	0.027775	1449.1	0.00069007	134.42	134.44	0.73546	0.82144	1.2365	859.53	-0.31620	560.52	0.11608	0.018973	1.5616	0.64036	349.23	367.02	1.7824	0.62554	0.71688	141.48	69.571	8.8595	0.0072817
222.26	0.027950	1448.8	0.00069021	134.55	134.57	0.73605	0.82155	1.2367	859.02	-0.31600	559.48	0.11602	0.018957	1.5708	0.63661	349.29	367.08	1.7822	0.62580	0.71718	141.50	69.428	8.8635	0.0072904
222.36	0.028125	1448.5	0.00069035	134.68	134.70	0.73664	0.82165	1.2368	858.51	-0.31580	558.45	0.11597	0.018940	1.5800	0.63290	349.35	367.15	1.7820	0.62605	0.71748	141.52	69.285	8.8675	0.0072989
222.47	0.028300	1448.2	0.00069050	134.81	134.83	0.73723	0.82176	1.2370	858.00	-0.31561	557.42	0.11592	0.018924	1.5892	0.62924	349.41	367.22	1.7818	0.62631	0.71777	141.54	69.144	8.8714	0.0073075
222.57	0.028475	1447.9	0.00069064	134.94	134.96	0.73781	0.82187	1.2372	857.50	-0.31541	556.41	0.11586	0.018908	1.5984	0.62562	349.47	367.29	1.7816	0.62656	0.71807	141.57	69.004	8.8754	0.0073160
222.68	0.028650	1447.6	0.00069078	135.07	135.09	0.73840	0.82197	1.2373	857.00	-0.31522	555.40	0.11581	0.018892	1.6076	0.62204	349.53	367.35	1.7814	0.62681	0.71836	141.59	68.865	8.8793	0.0073244
222.78	0.028825	1447.3	0.00069092	135.20	135.22	0.73897	0.82208	1.2375	856.50	-0.31502	554.40	0.11576	0.018876	1.6168	0.61850	349.59	367.42	1.7812	0.62707	0.71865	141.61	68.728	8.8832	0.0073328
222.89	0.029000	1447.1	0.00069106	135.33	135.35	0.73955	0.82218	1.2376	856.00	-0.31483	553.41	0.11570	0.018860	1.6260	0.61501	349.65	367.48	1.7811	0.62732	0.71895	141.63	68.591	8.8871	0.0073412
222.99	0.029175	1446.8	0.00069120	135.45	135.47	0.74012	0.82228	1.2378	855.51	-0.31464	552.42	0.11565	0.018844	1.6352	0.61155	349.71	367.55	1.7809	0.62757	0.71924	141.66	68.456	8.8909	0.0073495
223.09	0.029350	1446.5	0.00069134	135.58	135.60	0.74069	0.82239	1.2380	855.02	-0.31445	551.45	0.11560	0.018828	1.6444	0.60814	349.77	367.61	1.7807	0.62781	0.71952	141.68	68.322	8.8948	0.0073578
223.19	0.029525	1446.2	0.00069147	135.71	135.73	0.74125	0.82249	1.2381	854.53	-0.31425	550.48	0.11555	0.018812	1.6535	0.60477	349.82	367.68	1.7805	0.62806	0.71981	141.70	68.189	8.8986	0.0073660
223.29	0.029700	1445.9	0.00069161	135.83	135.85	0.74182	0.82259	1.2383	854.05	-0.31406	549.52	0.11550	0.018796	1.6627	0.60143	349.88	367.74	1.7803	0.62831	0.72010	141.72	68.057	8.9024	0.0073743
223.40	0.029875	1445.6	0.00069175	135.96	135.98	0.74238	0.82269	1.2384	853.56	-0.31387	548.56	0.11545	0.018781	1.6719	0.59813	349.94	367.81	1.7801	0.62855	0.72038	141.74	67.926	8.9062	0.0073824
223.50	0.030050	1445.3	0.00069188	136.08	136.10	0.74293	0.82280	1.2386	853.08	-0.31369	547.61	0.11539	0.018765	1.6810	0.59487	350.00	367.87	1.7799	0.62880	0.72067	141.76	67.796	8.9100	0.0073906
223.60	0.030225	1445.0	0.00069202	136.21	136.23	0.74349	0.82290	1.2388	852.60	-0.31350	546.67	0.11534	0.018750	1.6902	0.59164	350.05	367.94	1.7798	0.62904	0.72095	141.78	67.668	8.9137	0.0073986
223.70	0.030400	1444.8	0.00069216	136.33	136.35	0.74404	0.82300	1.2389	852.13	-0.31331	545.74	0.11529	0.018734	1.6994	0.58846	350.11	368.00	1.7796	0.62928	0.72123	141.80	67.540	8.9174	0.0074067
223.80	0.030575	1444.5	0.00069229	136.45	136.47	0.74459	0.82310	1.2391	851.65	-0.31312	544.81	0.11524	0.018719	1.7085	0.58530	350.17	368.06	1.7794	0.62952	0.72151	141.83	67.413	8.9211	0.0074147
223.89	0.030750	1444.2	0.00069242	136.57	136.60	0.74513	0.82320	1.2392	851.18	-0.31293	543.89	0.11519	0.018704	1.7177	0.58218	350.22	368.12	1.7792	0.62976	0.72179	141.85	67.288	8.9248	0.0074227
223.99	0.030925	1443.9	0.00069256	136.70	136.72	0.74567	0.82330	1.2394	850.71	-0.31275	542.97	0.11514	0.018689	1.7268	0.57910	350.28	368.19	1.7791	0.63000	0.72207	141.87	67.163	8.9285	0.0074306
224.09	0.031100	1443.6	0.00069269	136.82	136.84	0.74622	0.82340	1.2395	850.24	-0.31256	542.07	0.11510	0.018674	1.7360	0.57605	350.33	368.25	1.7789	0.63024	0.72235	141.89	67.039	8.9322	0.0074385
224.19	0.031275	1443.4	0.00069282	136.94	136.96	0.74675	0.82349	1.2397	849.78	-0.31238	541.17	0.11505	0.018659	1.7451	0.57303	350.39	368.31	1.7787	0.63047	0.72263	141.91	66.916	8.9358	0.0074464
224.28	0.031450	1443.1	0.00069295	137.06	137.08	0.74729	0.82359	1.2399	849.32	-0.31219	540.27	0.11500	0.018644	1.7542	0.57004	350.44	368.37	1.7785	0.63071	0.72290	141.93	66.795	8.9394	0.0074543
224.38	0.031625	1442.8	0.00069309	137.18	137.20	0.74782	0.82369	1.2400	848.86	-0.31201	539.38	0.11495	0.018629	1.7634	0.56709	350.50	368.43	1.7784	0.63094	0.72318	141.95	66.674	8.9430	0.0074621
224.48	0.031800	1442.6	0.00069322	137.30	137.32	0.74835	0.82379	1.2402	848.40	-0.31183	538.50	0.11490	0.018614	1.7725	0.56417	350.55	368.49	1.7782	0.63117	0.72345	141.97	66.554	8.9466	0.0074698
224.57	0.031975	1442.3	0.00069335	137.41	137.44	0.74888	0.82389	1.2403	847.94	-0.31164	537.62	0.11485	0.018599	1.7816	0.56128	350.61	368.56	1.7780	0.63141	0.72372	141.99	66.435	8.9502	0.0074776
224.67	0.032150	1442.0	0.00069348	137.53	137.55	0.74940	0.82398	1.2405	847.49	-0.31146	536.76	0.11480	0.018585	1.7908	0.55842	350.66	368.62	1.7779	0.63164	0.72399	142.01	66.317	8.9538	0.0074853
224.76	0.032325	1441.7	0.00069361	137.65	137.67	0.74993	0.82408	1.2406	847.03	-0.31128	535.89	0.11476	0.018570	1.7999	0.55559	350.72	368.68	1.7777	0.63187	0.72426	142.03	66.199	8.9573	0.0074929
224.86	0.032500	1441.5	0.00069373	137.77	137.79	0.75045	0.82418	1.2408	846.58	-0.31110	535.03	0.11471	0.018555	1.8090	0.55279	350.77	368.74	1.7775	0.63210	0.72453	142.05	66.083	8.9608	0.0075006
224.95	0.032675	1441.2	0.00069386	137.88	137.91	0.75096	0.82427	1.2409	846.14	-0.31092	534.18	0.11466	0.018541	1.8181	0.55001	350.82	368.80	1.7774	0.63233	0.72480	142.06	65.967	8.9643	0.0075081
225.04	0.032850	1440.9	0.00069399	138.00	138.02	0.75148	0.82437	1.2411	845.69	-0.31074	533.33	0.11461	0.018527	1.8273	0.54727	350.88	368.85	1.7772	0.63255	0.72507	142.08	65.853	8.9678	0.0075157
225.14	0.033025	1440.7	0.00069412	138.11	138.14	0.75199	0.82446	1.2412	845.25	-0.31056	532.49	0.11457	0.018512	1.8364	0.54455	350.93	368.91	1.7770	0.63278	0.72533	142.10	65.739	8.9713	0.0075232
225.23	0.033200	1440.4	0.00069424	138.23	138.25	0.75250	0.82456	1.2414	844.80	-0.31038	531.66	0.11452	0.018498	1.8455	0.54187	350.98	368.97	1.7769	0.63301	0.72560	142.12	65.626	8.9748	0.0075307
225.32	0.033375	1440.2	0.00069437	138.34	138.37	0.75301	0.82465	1.2415	844.36	-0.31020	530.83	0.11447	0.018484	1.8546	0.53921	351.04	369.03	1.7767	0.63323	0.72586	142.14	65.514	8.9782	0.0075382
225.41	0.033550	1439.9	0.00069450	138.46	138.48	0.75352	0.82474	1.2417	843.93	-0.31002	530.01	0.11443	0.018470	1.8637	0.53657	351.09	369.09	1.7766	0.63346	0.72613	142.16	65.403	8.9816	0.0075457
225.50	0.033725	1439.6	0.00069462	138.57	138.59	0.75402	0.82484	1.2418	843.49	-0.30985	529.19	0.11438	0.018455	1.8728	0.53397	351.14	369.15	1.7764	0.63368	0.72639	142.18	65.292	8.9851	0.0075531
225.60	0.033900	1439.4	0.00069475	138.68	138.71	0.75452	0.82493	1.2420	843.05	-0.30967	528.37	0.11434	0.018441	1.8819	0.53138	351.19	369.21	1.7763	0.63390	0.72665	142.20	65.182	8.9885	0.0075604
225.69	0.034075	1439.1	0.00069487	138.80	138.82	0.75502	0.82502	1.2421	842.62	-0.30949	527.57	0.11429	0.018427	1.8910	0.52883	351.24	369.26	1.7761	0.63412	0.72691	142.22	65.073	8.9918	0.0075678
225.78	0.034250	1438.9	0.00069500	138.91	138.93	0.75552	0.82512	1.2423	842.19	-0.30932	526.76	0.11425	0.018414	1.9001	0.52630	351.29	369.32	1.7759	0.63434	0.72717	142.23	64.965	8.9952	0.0075751
225.87	0.034425	1438.6	0.00069512	139.02	139.04	0.75601	0.82521	1.2424	841.76	-0.30914	525.97	0.11420	0.018400	1.9092	0.52379	351.35	369.38	1.7758	0.63456	0.72743	142.25	64.858	8.9986	0.0075824
225.96	0.034600	1438.3	0.00069524	139.13	139.16	0.75650	0.82530	1.2426	841.33	-0.30897	525.17	0.11416	0.018386	1.9182	0.52131	351.40	369.43	1.7756	0.63478	0.72769	142.27	64.751	9.0019	0.0075896
226.05	0.034775	1438.1	0.00069537	139.24	139.27	0.75699	0.82539	1.2427	840.91	-0.30879	524.39	0.11411	0.018372	1.9273	0.51886	351.45	369.49	1.7755	0.63500	0.72795	142.29	64.645	9.0052	0.0075969
226.13	0.034950	1437.8	0.00069549	139.35	139.38	0.75748	0.82548	1.2428	840.49	-0.30862	523.60	0.11407	0.018359	1.9364	0.51642	351.50	369.55	1.7753	0.63522	0.72820	142.31	64.540	9.0086	0.0076041
226.22	0.035125	1437.6	0.00069561	139.46	139.49	0.75797	0.82558	1.2430	840.06	-0.30845	522.83	0.11402	0.018345	1.9455	0.51401	351.55	369.60	1.7752	0.63543	0.72846	142.32	64.435	9.0119	0.0076112
226.31	0.035300	1437.3	0.00069573	139.57	139.60	0.75845	0.82567	1.2431	839.64	-0.30827	522.05	0.11398	0.018331	1.9545	0.51163	351.60	369.66	1.7750	0.63565	0.72871	142.34	64.332	9.0152	0.0076184
226.40	0.035475	1437.1	0.00069585	139.68	139.71	0.75893	0.82576	1.2433	839.23	-0.30810	521.29	0.11393	0.018318	1.9636	0.50926	351.65	369.72	1.7749	0.63586	0.72896	142.36	64.229	9.0184	0.0076255
226.49	0.035650	1436.8	0.00069597	139.79	139.81	0.75941	0.82585	1.2434	838.81	-0.30793	520.52	0.11389	0.018304	1.9727	0.50692	351.70	369.77	1.7747	0.63608	0.72922	142.38	64.126	9.0217	0.0076326
226.57	0.035825	1436.6	0.00069609	139.90	139.92	0.75989	0.82594	1.2436	838.39	-0.30776	519.77	0.11385	0.018291	1.9818	0.50460	351.75	369.83	1.7746	0.63629	0.72947	142.39	64.024	9.0249	0.0076396
226.66	0.036000	1436.3	0.00069621	140.01	140.03	0.76037	0.82603	1.2437	837.98	-0.30759	519.01	0.11380	0.018278	1.9908	0.50231	351.80	369.88	1.7744	0.63650	0.72972	142.41	63.924	9.0282	0.0076466
226.75	0.036175	1436.1	0.00069633	140.11	140.14	0.76084	0.82611	1.2438	837.57	-0.30741	518.26	0.11376	0.018264	1.9999	0.50003	351.85	369.94	1.7743	0.63672	0.72997	142.43	63.823	9.0314	0.0076536
226.83	0.036350	1435.8	0.00069645	140.22	140.25	0.76131	0.82620	1.2440	837.16	-0.30724	517.52	0.11372	0.018251	2.0089	0.49778	351.90	369.99	1.7742	0.63693	0.73022	142.45	63.724	9.0346	0.0076606
226.92	0.036525	1435.6	0.00069657	140.33	140.35	0.76178	0.82629	1.2441	836.75	-0.30707	516.78	0.11367	0.018238	2.0180	0.49554	351.95	370.05	1.7740	0.63714	0.73047	142.46	63.625	9.0378	0.0076676
227.00	0.036700	1435.4	0.00069669	140.43	140.46	0.76225	0.82638	1.2443	836.35	-0.30691	516.05	0.11363	0.018225	2.0270	0.49333	352.00	370.10	1.7739	0.63735	0.73072	142.48	63.526	9.0410	0.0076745
227.09	0.036875	1435.1	0.00069681	140.54	140.56	0.76272	0.82647	1.2444	835.94	-0.30674	515.32	0.11359	0.018212	2.0361	0.49114	352.04	370.15	1.7737	0.63755	0.73096	142.50	63.429	9.0441	0.0076814
227.17	0.037050	1434.9	0.00069692	140.64	140.67	0.76318	0.82656	1.2445	835.54	-0.30657	514.59	0.11355	0.018199	2.0451	0.48896	352.09	370.21	1.7736	0.63776	0.73121	142.51	63.331	9.0473	0.0076882
227.26	0.037225	1434.6	0.00069704	140.75	140.78	0.76364	0.82664	1.2447	835.14	-0.30640	513.87	0.11351	0.018186	2.0542	0.48681	352.14	370.26	1.7735	0.63797	0.73146	142.53	63.235	9.0504	0.0076951
227.34	0.037400	1434.4	0.00069716	140.85	140.88	0.76410	0.82673	1.2448	834.74	-0.30623	513.15	0.11346	0.018173	2.0632	0.48468	352.19	370.32	1.7733	0.63818	0.73170	142.55	63.139	9.0536	0.0077019
227.43	0.037575	1434.2	0.00069727	140.96	140.98	0.76456	0.82682	1.2450	834.34	-0.30607	512.44	0.11342	0.018160	2.0723	0.48256	352.24	370.37	1.7732	0.63838	0.73194	142.56	63.044	9.0567	0.0077087
227.51	0.037750	1433.9	0.00069739	141.06	141.09	0.76502	0.82690	1.2451	833.94	-0.30590	511.73	0.11338	0.018147	2.0813	0.48047	352.28	370.42	1.7730	0.63859	0.73219	142.58	62.949	9.0598	0.0077155
227.59	0.037925	1433.7	0.00069751	141.17	141.19	0.76547	0.82699	1.2452	833.54	-0.30573	511.02	0.11334	0.018135	2.0903	0.47839	352.33	370.47	1.7729	0.63879	0.73243	142.60	62.856	9.0629	0.0077222
227.67	0.038100	1433.4	0.00069762	141.27	141.30	0.76593	0.82707	1.2454	833.15	-0.30557	510.32	0.11330	0.018122	2.0994	0.47633	352.38	370.53	1.7728	0.63899	0.73267	142.61	62.762	9.0660	0.0077289
227.76	0.038275	1433.2	0.00069774	141.37	141.40	0.76638	0.82716	1.2455	832.76	-0.30540	509.62	0.11326	0.018109	2.1084	0.47429	352.43	370.58	1.7726	0.63920	0.73291	142.63	62.669	9.0691	0.0077356
227.84	0.038450	1433.0	0.00069785	141.47	141.50	0.76683	0.82725	1.2456	832.37	-0.30524	508.93	0.11322	0.018097	2.1174	0.47227	352.47	370.63	1.7725	0.63940	0.73315	142.64	62.577	9.0721	0.0077423
227.92	0.038625	1432.7	0.00069796	141.58	141.60	0.76727	0.82733	1.2458	831.98	-0.30507	508.24	0.11317	0.018084	2.1264	0.47027	352.52	370.68	1.7724	0.63960	0.73339	142.66	62.485	9.0752	0.0077489
228.00	0.038800	1432.5	0.00069808	141.68	141.70	0.76772	0.82742	1.2459	831.59	-0.30491	507.56	0.11313	0.018071	2.1355	0.46828	352.57	370.74	1.7722	0.63980	0.73363	142.68	62.394	9.0782	0.0077555
228.08	0.038975	1432.3	0.00069819	141.78	141.81	0.76816	0.82750	1.2460	831.20	-0.30474	506.88	0.11309	0.018059	2.1445	0.46631	352.61	370.79	1.7721	0.64000	0.73387	142.69	62.304	9.0812	0.0077621
228.17	0.039150	1432.0	0.00069830	141.88	141.91	0.76860	0.82758	1.2462	830.82	-0.30458	506.20	0.11305	0.018047	2.1535	0.46436	352.66	370.84	1.7720	0.64020	0.73411	142.71	62.214	9.0842	0.0077687
228.25	0.039325	1431.8	0.00069842	141.98	142.01	0.76905	0.82767	1.2463	830.43	-0.30442	505.53	0.11301	0.018034	2.1625	0.46243	352.70	370.89	1.7718	0.64040	0.73434	142.72	62.125	9.0872	0.0077752
228.33	0.039500	1431.6	0.00069853	142.08	142.11	0.76948	0.82775	1.2464	830.05	-0.30425	504.86	0.11297	0.018022	2.1715	0.46051	352.75	370.94	1.7717	0.64060	0.73458	142.74	62.036	9.0902	0.0077818
228.41	0.039675	1431.4	0.00069864	142.18	142.21	0.76992	0.82784	1.2466	829.67	-0.30409	504.19	0.11293	0.018010	2.1805	0.45860	352.80	370.99	1.7716	0.64080	0.73481	142.75	61.947	9.0932	0.0077883
228.49	0.039850	1431.1	0.00069875	142.28	142.31	0.77036	0.82792	1.2467	829.29	-0.30393	503.53	0.11289	0.017997	2.1895	0.45672	352.84	371.04	1.7714	0.64099	0.73505	142.77	61.860	9.0962	0.0077947
228.57	0.040025	1430.9	0.00069886	142.38	142.41	0.77079	0.82800	1.2468	828.91	-0.30377	502.87	0.11285	0.017985	2.1985	0.45485	352.89	371.09	1.7713	0.64119	0.73528	142.79	61.772	9.0991	0.0078012
228.65	0.040200	1430.7	0.00069897	142.48	142.51	0.77122	0.82808	1.2470	828.54	-0.30361	502.21	0.11281	0.017973	2.2075	0.45299	352.93	371.14	1.7712	0.64138	0.73551	142.80	61.686	9.1021	0.0078076
228.72	0.040375	1430.4	0.00069908	142.58	142.60	0.77165	0.82817	1.2471	828.16	-0.30345	501.56	0.11277	0.017961	2.2165	0.45115	352.98	371.19	1.7711	0.64158	0.73575	142.82	61.599	9.1050	0.0078140
228.80	0.040550	1430.2	0.00069919	142.67	142.70	0.77208	0.82825	1.2472	827.79	-0.30329	500.91	0.11274	0.017949	2.2255	0.44933	353.02	371.24	1.7709	0.64177	0.73598	142.83	61.514	9.1080	0.0078204
228.88	0.040725	1430.0	0.00069930	142.77	142.80	0.77251	0.82833	1.2474	827.42	-0.30313	500.27	0.11270	0.017937	2.2345	0.44752	353.07	371.29	1.7708	0.64197	0.73621	142.85	61.428	9.1109	0.0078268
228.96	0.040900	1429.8	0.00069941	142.87	142.90	0.77294	0.82841	1.2475	827.04	-0.30297	499.63	0.11266	0.017925	2.2435	0.44573	353.11	371.34	1.7707	0.64216	0.73644	142.86	61.344	9.1138	0.0078331
229.04	0.041075	1429.5	0.00069952	142.97	143.00	0.77336	0.82849	1.2476	826.67	-0.30281	498.99	0.11262	0.017913	2.2525	0.44395	353.16	371.39	1.7706	0.64235	0.73667	142.88	61.260	9.1167	0.0078395
229.12	0.041250	1429.3	0.00069963	143.06	143.09	0.77378	0.82857	1.2478	826.31	-0.30265	498.36	0.11258	0.017901	2.2615	0.44218	353.20	371.44	1.7704	0.64254	0.73690	142.89	61.176	9.1196	0.0078458
229.19	0.041425	1429.1	0.00069974	143.16	143.19	0.77420	0.82866	1.2479	825.94	-0.30249	497.73	0.11254	0.017889	2.2705	0.44043	353.25	371.49	1.7703	0.64273	0.73713	142.91	61.093	9.1224	0.0078520
229.27	0.041600	1428.9	0.00069985	143.26	143.29	0.77462	0.82874	1.2480	825.57	-0.30233	497.10	0.11250	0.017877	2.2795	0.43870	353.29	371.54	1.7702	0.64292	0.73736	142.92	61.010	9.1253	0.0078583
229.35	0.041775	1428.7	0.00069996	143.35	143.38	0.77504	0.82882	1.2481	825.21	-0.30217	496.48	0.11247	0.017866	2.2885	0.43698	353.33	371.59	1.7701	0.64311	0.73758	142.93	60.928	9.1282	0.0078645
229.42	0.041950	1428.4	0.00070007	143.45	143.48	0.77546	0.82890	1.2483	824.84	-0.30202	495.86	0.11243	0.017854	2.2974	0.43527	353.38	371.64	1.7700	0.64330	0.73781	142.95	60.846	9.1310	0.0078707
229.50	0.042125	1428.2	0.00070017	143.54	143.57	0.77587	0.82898	1.2484	824.48	-0.30186	495.24	0.11239	0.017842	2.3064	0.43357	353.42	371.69	1.7698	0.64349	0.73804	142.96	60.764	9.1338	0.0078769
229.58	0.042300	1428.0	0.00070028	143.64	143.67	0.77629	0.82906	1.2485	824.12	-0.30170	494.63	0.11235	0.017831	2.3154	0.43189	353.47	371.73	1.7697	0.64368	0.73826	142.98	60.684	9.1367	0.0078831
229.65	0.042475	1427.8	0.00070039	143.73	143.76	0.77670	0.82914	1.2487	823.76	-0.30155	494.01	0.11232	0.017819	2.3244	0.43023	353.51	371.78	1.7696	0.64387	0.73849	142.99	60.603	9.1395	0.0078893
229.73	0.042650	1427.6	0.00070049	143.83	143.86	0.77711	0.82922	1.2488	823.40	-0.30139	493.41	0.11228	0.017807	2.3333	0.42857	353.55	371.83	1.7695	0.64406	0.73871	143.01	60.523	9.1423	0.0078954
229.80	0.042825	1427.4	0.00070060	143.92	143.95	0.77752	0.82929	1.2489	823.05	-0.30123	492.80	0.11224	0.017796	2.3423	0.42693	353.59	371.88	1.7694	0.64424	0.73893	143.02	60.444	9.1451	0.0079015
229.88	0.043000	1427.1	0.00070070	144.01	144.04	0.77793	0.82937	1.2490	822.69	-0.30108	492.20	0.11220	0.017784	2.3513	0.42530	353.64	371.93	1.7692	0.64443	0.73916	143.03	60.365	9.1479	0.0079076
229.95	0.043175	1426.9	0.00070081	144.11	144.14	0.77833	0.82945	1.2492	822.34	-0.30092	491.60	0.11217	0.017773	2.3602	0.42369	353.68	371.97	1.7691	0.64461	0.73938	143.05	60.286	9.1506	0.0079137
230.03	0.043350	1426.7	0.00070092	144.20	144.23	0.77874	0.82953	1.2493	821.98	-0.30077	491.01	0.11213	0.017762	2.3692	0.42209	353.72	372.02	1.7690	0.64480	0.73960	143.06	60.208	9.1534	0.0079198
230.10	0.043525	1426.5	0.00070102	144.29	144.32	0.77914	0.82961	1.2494	821.63	-0.30061	490.42	0.11209	0.017750	2.3781	0.42050	353.77	372.07	1.7689	0.64498	0.73982	143.08	60.130	9.1562	0.0079258
230.18	0.043700	1426.3	0.00070112	144.39	144.42	0.77954	0.82969	1.2495	821.28	-0.30046	489.83	0.11206	0.017739	2.3871	0.41892	353.81	372.12	1.7688	0.64517	0.74004	143.09	60.053	9.1589	0.0079318
230.25	0.043875	1426.1	0.00070123	144.48	144.51	0.77994	0.82976	1.2497	820.93	-0.30031	489.24	0.11202	0.017728	2.3961	0.41735	353.85	372.16	1.7687	0.64535	0.74026	143.10	59.976	9.1617	0.0079378
230.32	0.044050	1425.9	0.00070133	144.57	144.60	0.78034	0.82984	1.2498	820.58	-0.30015	488.66	0.11198	0.017716	2.4050	0.41580	353.89	372.21	1.7686	0.64553	0.74048	143.12	59.899	9.1644	0.0079438
230.40	0.044225	1425.6	0.00070144	144.66	144.69	0.78074	0.82992	1.2499	820.23	-0.30000	488.08	0.11195	0.017705	2.4140	0.41426	353.93	372.26	1.7684	0.64571	0.74070	143.13	59.823	9.1671	0.0079497
230.47	0.044400	1425.4	0.00070154	144.75	144.78	0.78114	0.83000	1.2500	819.88	-0.29985	487.50	0.11191	0.017694	2.4229	0.41273	353.98	372.30	1.7683	0.64589	0.74092	143.15	59.747	9.1698	0.0079557
230.54	0.044575	1425.2	0.00070164	144.84	144.88	0.78153	0.83007	1.2502	819.54	-0.29969	486.92	0.11187	0.017683	2.4318	0.41121	354.02	372.35	1.7682	0.64608	0.74113	143.16	59.672	9.1725	0.0079616
230.61	0.044750	1425.0	0.00070175	144.94	144.97	0.78193	0.83015	1.2503	819.19	-0.29954	486.35	0.11184	0.017672	2.4408	0.40970	354.06	372.39	1.7681	0.64626	0.74135	143.17	59.597	9.1752	0.0079675
230.69	0.044925	1424.8	0.00070185	145.03	145.06	0.78232	0.83023	1.2504	818.85	-0.29939	485.78	0.11180	0.017661	2.4497	0.40821	354.10	372.44	1.7680	0.64644	0.74157	143.19	59.523	9.1779	0.0079734
230.76	0.045100	1424.6	0.00070195	145.12	145.15	0.78271	0.83030	1.2505	818.51	-0.29924	485.22	0.11177	0.017650	2.4587	0.40672	354.14	372.49	1.7679	0.64662	0.74178	143.20	59.449	9.1806	0.0079793
230.83	0.045275	1424.4	0.00070205	145.21	145.24	0.78310	0.83038	1.2507	818.17	-0.29909	484.65	0.11173	0.017639	2.4676	0.40525	354.18	372.53	1.7678	0.64679	0.74200	143.21	59.375	9.1833	0.0079851
230.90	0.045450	1424.2	0.00070216	145.30	145.33	0.78349	0.83045	1.2508	817.83	-0.29894	484.09	0.11170	0.017628	2.4765	0.40379	354.23	372.58	1.7677	0.64697	0.74221	143.23	59.302	9.1859	0.0079909
230.97	0.045625	1424.0	0.00070226	145.39	145.42	0.78388	0.83053	1.2509	817.49	-0.29879	483.54	0.11166	0.017617	2.4855	0.40234	354.27	372.62	1.7676	0.64715	0.74243	143.24	59.229	9.1886	0.0079968
231.05	0.045800	1423.8	0.00070236	145.47	145.51	0.78426	0.83060	1.2510	817.15	-0.29864	482.98	0.11163	0.017606	2.4944	0.40090	354.31	372.67	1.7674	0.64733	0.74264	143.25	59.156	9.1912	0.0080026
231.12	0.045975	1423.6	0.00070246	145.56	145.60	0.78465	0.83068	1.2511	816.81	-0.29849	482.43	0.11159	0.017595	2.5033	0.39947	354.35	372.71	1.7673	0.64750	0.74286	143.26	59.084	9.1938	0.0080083
231.19	0.046150	1423.4	0.00070256	145.65	145.68	0.78503	0.83075	1.2513	816.48	-0.29834	481.88	0.11156	0.017584	2.5123	0.39805	354.39	372.76	1.7672	0.64768	0.74307	143.28	59.012	9.1965	0.0080141
231.26	0.046325	1423.2	0.00070266	145.74	145.77	0.78541	0.83083	1.2514	816.14	-0.29819	481.33	0.11152	0.017573	2.5212	0.39664	354.43	372.80	1.7671	0.64786	0.74328	143.29	58.941	9.1991	0.0080198
231.33	0.046500	1423.0	0.00070276	145.83	145.86	0.78579	0.83090	1.2515	815.81	-0.29804	480.79	0.11149	0.017563	2.5301	0.39524	354.47	372.85	1.7670	0.64803	0.74349	143.30	58.870	9.2017	0.0080256
231.40	0.046675	1422.8	0.00070286	145.92	145.95	0.78617	0.83098	1.2516	815.48	-0.29789	480.24	0.11145	0.017552	2.5390	0.39385	354.51	372.89	1.7669	0.64821	0.74370	143.32	58.799	9.2043	0.0080313
231.47	0.046850	1422.6	0.00070296	146.00	146.04	0.78655	0.83105	1.2517	815.15	-0.29774	479.70	0.11142	0.017541	2.5480	0.39247	354.55	372.94	1.7668	0.64838	0.74391	143.33	58.729	9.2069	0.0080370
231.54	0.047025	1422.4	0.00070306	146.09	146.12	0.78693	0.83113	1.2519	814.82	-0.29759	479.17	0.11138	0.017531	2.5569	0.39110	354.59	372.98	1.7667	0.64855	0.74412	143.34	58.659	9.2095	0.0080426
231.61	0.047200	1422.2	0.00070316	146.18	146.21	0.78731	0.83120	1.2520	814.49	-0.29744	478.63	0.11135	0.017520	2.5658	0.38974	354.63	373.03	1.7666	0.64873	0.74433	143.35	58.589	9.2121	0.0080483
231.68	0.047375	1422.0	0.00070326	146.27	146.30	0.78768	0.83127	1.2521	814.16	-0.29730	478.10	0.11131	0.017509	2.5747	0.38839	354.67	373.07	1.7665	0.64890	0.74454	143.37	58.520	9.2146	0.0080539
231.75	0.047550	1421.8	0.00070336	146.35	146.39	0.78806	0.83135	1.2522	813.83	-0.29715	477.57	0.11128	0.017499	2.5836	0.38706	354.71	373.11	1.7664	0.64907	0.74475	143.38	58.451	9.2172	0.0080596
231.82	0.047725	1421.6	0.00070346	146.44	146.47	0.78843	0.83142	1.2523	813.50	-0.29700	477.04	0.11125	0.017488	2.5925	0.38573	354.75	373.16	1.7663	0.64925	0.74496	143.39	58.382	9.2197	0.0080652
231.89	0.047900	1421.4	0.00070355	146.52	146.56	0.78880	0.83149	1.2525	813.18	-0.29685	476.52	0.11121	0.017478	2.6014	0.38440	354.79	373.20	1.7662	0.64942	0.74517	143.40	58.314	9.2223	0.0080708
231.95	0.048075	1421.2	0.00070365	146.61	146.64	0.78917	0.83157	1.2526	812.86	-0.29671	476.00	0.11118	0.017467	2.6103	0.38309	354.83	373.24	1.7661	0.64959	0.74537	143.42	58.246	9.2248	0.0080763
232.02	0.048250	1421.0	0.00070375	146.70	146.73	0.78954	0.83164	1.2527	812.53	-0.29656	475.48	0.11115	0.017457	2.6192	0.38179	354.87	373.29	1.7660	0.64976	0.74558	143.43	58.178	9.2274	0.0080819
232.09	0.048425	1420.8	0.00070385	146.78	146.82	0.78991	0.83171	1.2528	812.21	-0.29642	474.96	0.11111	0.017446	2.6281	0.38050	354.91	373.33	1.7659	0.64993	0.74579	143.44	58.111	9.2299	0.0080874
232.16	0.048600	1420.6	0.00070394	146.87	146.90	0.79027	0.83178	1.2529	811.89	-0.29627	474.44	0.11108	0.017436	2.6370	0.37921	354.94	373.37	1.7658	0.65010	0.74599	143.45	58.044	9.2324	0.0080930
232.23	0.048775	1420.4	0.00070404	146.95	146.99	0.79064	0.83185	1.2530	811.57	-0.29612	473.93	0.11104	0.017426	2.6459	0.37794	354.98	373.42	1.7657	0.65027	0.74620	143.47	57.978	9.2349	0.0080985
232.29	0.048950	1420.2	0.00070414	147.04	147.07	0.79100	0.83193	1.2532	811.25	-0.29598	473.42	0.11101	0.017416	2.6548	0.37667	355.02	373.46	1.7656	0.65044	0.74640	143.48	57.911	9.2374	0.0081040
232.36	0.049125	1420.0	0.00070423	147.12	147.15	0.79137	0.83200	1.2533	810.93	-0.29583	472.91	0.11098	0.017405	2.6637	0.37541	355.06	373.50	1.7655	0.65061	0.74661	143.49	57.846	9.2399	0.0081095
232.43	0.049300	1419.8	0.00070433	147.20	147.24	0.79173	0.83207	1.2534	810.61	-0.29569	472.41	0.11095	0.017395	2.6726	0.37416	355.10	373.55	1.7654	0.65077	0.74681	143.50	57.780	9.2424	0.0081149
232.50	0.049475	1419.6	0.00070443	147.29	147.32	0.79209	0.83214	1.2535	810.29	-0.29555	471.90	0.11091	0.017385	2.6815	0.37292	355.14	373.59	1.7653	0.65094	0.74701	143.51	57.715	9.2449	0.0081204
232.56	0.049650	1419.4	0.00070452	147.37	147.41	0.79245	0.83221	1.2536	809.98	-0.29540	471.40	0.11088	0.017375	2.6904	0.37169	355.18	373.63	1.7652	0.65111	0.74722	143.53	57.650	9.2473	0.0081258
232.63	0.049825	1419.2	0.00070462	147.46	147.49	0.79281	0.83228	1.2537	809.66	-0.29526	470.90	0.11085	0.017364	2.6993	0.37047	355.21	373.67	1.7651	0.65127	0.74742	143.54	57.585	9.2498	0.0081312
232.70	0.050000	1419.0	0.00070471	147.54	147.57	0.79317	0.83235	1.2538	809.35	-0.29511	470.40	0.11081	0.017354	2.7082	0.36925	355.25	373.71	1.7650	0.65144	0.74762	143.55	57.521	9.2523	0.0081366
232.76	0.050175	1418.8	0.00070481	147.62	147.66	0.79352	0.83242	1.2540	809.04	-0.29497	469.91	0.11078	0.017344	2.7171	0.36805	355.29	373.76	1.7649	0.65161	0.74782	143.56	57.456	9.2547	0.0081420
232.83	0.050350	1418.6	0.00070490	147.70	147.74	0.79388	0.83249	1.2541	808.72	-0.29483	469.42	0.11075	0.017334	2.7259	0.36685	355.33	373.80	1.7648	0.65177	0.74802	143.57	57.393	9.2571	0.0081474
232.89	0.050525	1418.4	0.00070500	147.79	147.82	0.79423	0.83256	1.2542	808.41	-0.29468	468.93	0.11072	0.017324	2.7348	0.36566	355.37	373.84	1.7647	0.65194	0.74822	143.58	57.329	9.2596	0.0081528
232.96	0.050700	1418.3	0.00070509	147.87	147.91	0.79459	0.83263	1.2543	808.10	-0.29454	468.44	0.11068	0.017314	2.7437	0.36447	355.40	373.88	1.7646	0.65210	0.74842	143.60	57.266	9.2620	0.0081581
233.03	0.050875	1418.1	0.00070519	147.95	147.99	0.79494	0.83270	1.2544	807.79	-0.29440	467.95	0.11065	0.017304	2.7526	0.36330	355.44	373.92	1.7645	0.65226	0.74862	143.61	57.203	9.2644	0.0081635
233.09	0.051050	1417.9	0.00070528	148.03	148.07	0.79529	0.83277	1.2545	807.48	-0.29426	467.47	0.11062	0.017294	2.7614	0.36213	355.48	373.97	1.7644	0.65243	0.74882	143.62	57.141	9.2668	0.0081688
233.16	0.051225	1417.7	0.00070537	148.12	148.15	0.79564	0.83284	1.2546	807.18	-0.29412	466.98	0.11059	0.017284	2.7703	0.36097	355.52	374.01	1.7643	0.65259	0.74902	143.63	57.078	9.2693	0.0081741
233.22	0.051400	1417.5	0.00070547	148.20	148.23	0.79599	0.83291	1.2548	806.87	-0.29397	466.50	0.11056	0.017275	2.7792	0.35982	355.55	374.05	1.7642	0.65275	0.74922	143.64	57.016	9.2717	0.0081794
233.29	0.051575	1417.3	0.00070556	148.28	148.31	0.79634	0.83298	1.2549	806.56	-0.29383	466.03	0.11053	0.017265	2.7881	0.35867	355.59	374.09	1.7641	0.65292	0.74942	143.65	56.955	9.2740	0.0081846
233.35	0.051750	1417.1	0.00070565	148.36	148.40	0.79669	0.83305	1.2550	806.26	-0.29369	465.55	0.11049	0.017255	2.7969	0.35754	355.63	374.13	1.7640	0.65308	0.74962	143.66	56.893	9.2764	0.0081899
233.41	0.051925	1416.9	0.00070575	148.44	148.48	0.79703	0.83312	1.2551	805.95	-0.29355	465.08	0.11046	0.017245	2.8058	0.35641	355.66	374.17	1.7640	0.65324	0.74981	143.68	56.832	9.2788	0.0081951
233.48	0.052100	1416.8	0.00070584	148.52	148.56	0.79738	0.83319	1.2552	805.65	-0.29341	464.60	0.11043	0.017235	2.8147	0.35528	355.70	374.21	1.7639	0.65340	0.75001	143.69	56.771	9.2812	0.0082004
233.54	0.052275	1416.6	0.00070593	148.60	148.64	0.79772	0.83326	1.2553	805.35	-0.29327	464.13	0.11040	0.017226	2.8235	0.35417	355.74	374.25	1.7638	0.65356	0.75021	143.70	56.710	9.2836	0.0082056
233.61	0.052450	1416.4	0.00070603	148.68	148.72	0.79807	0.83333	1.2554	805.05	-0.29313	463.67	0.11037	0.017216	2.8324	0.35306	355.77	374.29	1.7637	0.65372	0.75040	143.71	56.650	9.2859	0.0082108
233.67	0.052625	1416.2	0.00070612	148.76	148.80	0.79841	0.83339	1.2555	804.75	-0.29299	463.20	0.11034	0.017206	2.8412	0.35196	355.81	374.33	1.7636	0.65388	0.75060	143.72	56.590	9.2883	0.0082160
233.73	0.052800	1416.0	0.00070621	148.84	148.88	0.79875	0.83346	1.2557	804.45	-0.29285	462.74	0.11031	0.017196	2.8501	0.35087	355.85	374.37	1.7635	0.65404	0.75079	143.73	56.530	9.2906	0.0082212
233.80	0.052975	1415.8	0.00070630	148.92	148.96	0.79909	0.83353	1.2558	804.15	-0.29271	462.27	0.11027	0.017187	2.8589	0.34978	355.88	374.41	1.7634	0.65420	0.75099	143.74	56.471	9.2930	0.0082263
233.86	0.053150	1415.6	0.00070639	149.00	149.04	0.79943	0.83360	1.2559	803.85	-0.29257	461.81	0.11024	0.017177	2.8678	0.34870	355.92	374.45	1.7633	0.65436	0.75118	143.75	56.412	9.2953	0.0082315
233.92	0.053325	1415.5	0.00070648	149.08	149.12	0.79977	0.83367	1.2560	803.55	-0.29243	461.36	0.11021	0.017168	2.8766	0.34763	355.96	374.49	1.7632	0.65452	0.75137	143.76	56.353	9.2976	0.0082366
233.99	0.053500	1415.3	0.00070657	149.16	149.20	0.80011	0.83373	1.2561	803.25	-0.29229	460.90	0.11018	0.017158	2.8855	0.34656	355.99	374.53	1.7631	0.65468	0.75157	143.77	56.294	9.2999	0.0082417
234.05	0.053675	1415.1	0.00070667	149.24	149.28	0.80044	0.83380	1.2562	802.96	-0.29216	460.44	0.11015	0.017149	2.8943	0.34550	356.03	374.57	1.7631	0.65483	0.75176	143.78	56.235	9.3023	0.0082468
234.11	0.053850	1414.9	0.00070676	149.32	149.35	0.80078	0.83387	1.2563	802.66	-0.29202	459.99	0.11012	0.017139	2.9032	0.34445	356.06	374.61	1.7630	0.65499	0.75195	143.80	56.177	9.3046	0.0082519
234.18	0.054025	1414.7	0.00070685	149.39	149.43	0.80112	0.83393	1.2564	802.37	-0.29188	459.54	0.11009	0.017130	2.9120	0.34340	356.10	374.65	1.7629	0.65515	0.75214	143.81	56.119	9.3069	0.0082570
234.24	0.054200	1414.6	0.00070694	149.47	149.51	0.80145	0.83400	1.2565	802.07	-0.29174	459.09	0.11006	0.017120	2.9209	0.34236	356.14	374.69	1.7628	0.65531	0.75234	143.82	56.061	9.3092	0.0082621
234.30	0.054375	1414.4	0.00070703	149.55	149.59	0.80178	0.83407	1.2566	801.78	-0.29160	458.64	0.11003	0.017111	2.9297	0.34133	356.17	374.73	1.7627	0.65546	0.75253	143.83	56.004	9.3115	0.0082672
234.36	0.054550	1414.2	0.00070712	149.63	149.67	0.80211	0.83413	1.2568	801.49	-0.29147	458.20	0.11000	0.017101	2.9386	0.34030	356.21	374.77	1.7626	0.65562	0.75272	143.84	55.947	9.3137	0.0082722
234.42	0.054725	1414.0	0.00070721	149.71	149.74	0.80244	0.83420	1.2569	801.20	-0.29133	457.75	0.10997	0.017092	2.9474	0.33928	356.24	374.81	1.7625	0.65577	0.75291	143.85	55.890	9.3160	0.0082772
234.48	0.054900	1413.8	0.00070730	149.78	149.82	0.80278	0.83427	1.2570	800.91	-0.29119	457.31	0.10994	0.017083	2.9562	0.33827	356.28	374.85	1.7624	0.65593	0.75310	143.86	55.833	9.3183	0.0082822
234.55	0.055075	1413.7	0.00070739	149.86	149.90	0.80310	0.83433	1.2571	800.62	-0.29106	456.87	0.10991	0.017073	2.9651	0.33726	356.31	374.89	1.7624	0.65608	0.75329	143.87	55.777	9.3206	0.0082873
234.61	0.055250	1413.5	0.00070747	149.94	149.98	0.80343	0.83440	1.2572	800.33	-0.29092	456.43	0.10988	0.017064	2.9739	0.33626	356.35	374.93	1.7623	0.65624	0.75348	143.88	55.720	9.3228	0.0082922
234.67	0.055425	1413.3	0.00070756	150.01	150.05	0.80376	0.83446	1.2573	800.04	-0.29078	456.00	0.10985	0.017055	2.9827	0.33526	356.38	374.97	1.7622	0.65639	0.75367	143.89	55.664	9.3251	0.0082972
234.73	0.055600	1413.1	0.00070765	150.09	150.13	0.80409	0.83453	1.2574	799.75	-0.29065	455.56	0.10982	0.017045	2.9916	0.33427	356.42	375.00	1.7621	0.65655	0.75385	143.90	55.609	9.3273	0.0083022
234.79	0.055775	1412.9	0.00070774	150.17	150.21	0.80441	0.83460	1.2575	799.47	-0.29051	455.13	0.10979	0.017036	3.0004	0.33329	356.45	375.04	1.7620	0.65670	0.75404	143.91	55.553	9.3296	0.0083072
234.85	0.055950	1412.8	0.00070783	150.24	150.28	0.80474	0.83466	1.2576	799.18	-0.29038	454.70	0.10976	0.017027	3.0092	0.33231	356.49	375.08	1.7619	0.65685	0.75423	143.92	55.498	9.3318	0.0083121
234.91	0.056125	1412.6	0.00070792	150.32	150.36	0.80506	0.83473	1.2577	798.89	-0.29024	454.27	0.10973	0.017018	3.0181	0.33134	356.52	375.12	1.7618	0.65700	0.75442	143.93	55.443	9.3340	0.0083170
234.97	0.056300	1412.4	0.00070801	150.40	150.44	0.80538	0.83479	1.2578	798.61	-0.29011	453.84	0.10970	0.017009	3.0269	0.33037	356.56	375.16	1.7618	0.65716	0.75460	143.94	55.388	9.3363	0.0083220
235.03	0.056475	1412.2	0.00070809	150.47	150.51	0.80571	0.83486	1.2579	798.33	-0.28997	453.41	0.10967	0.016999	3.0357	0.32941	356.59	375.20	1.7617	0.65731	0.75479	143.95	55.333	9.3385	0.0083269
235.09	0.056650	1412.1	0.00070818	150.55	150.59	0.80603	0.83492	1.2580	798.04	-0.28984	452.99	0.10964	0.016990	3.0445	0.32846	356.63	375.23	1.7616	0.65746	0.75498	143.96	55.279	9.3407	0.0083318
235.15	0.056825	1411.9	0.00070827	150.62	150.66	0.80635	0.83499	1.2582	797.76	-0.28970	452.57	0.10961	0.016981	3.0533	0.32751	356.66	375.27	1.7615	0.65761	0.75516	143.97	55.225	9.3429	0.0083366
235.21	0.057000	1411.7	0.00070836	150.70	150.74	0.80667	0.83505	1.2583	797.48	-0.28957	452.14	0.10958	0.016972	3.0622	0.32657	356.70	375.31	1.7614	0.65776	0.75535	143.98	55.171	9.3451	0.0083415
235.27	0.057175	1411.5	0.00070844	150.77	150.81	0.80699	0.83511	1.2584	797.20	-0.28943	451.72	0.10956	0.016963	3.0710	0.32563	356.73	375.35	1.7613	0.65791	0.75553	143.99	55.117	9.3473	0.0083464
235.33	0.057350	1411.4	0.00070853	150.85	150.89	0.80731	0.83518	1.2585	796.92	-0.28930	451.31	0.10953	0.016954	3.0798	0.32470	356.76	375.39	1.7613	0.65806	0.75572	144.00	55.064	9.3495	0.0083512
235.39	0.057525	1411.2	0.00070862	150.92	150.96	0.80762	0.83524	1.2586	796.64	-0.28916	450.89	0.10950	0.016945	3.0886	0.32377	356.80	375.42	1.7612	0.65821	0.75590	144.01	55.011	9.3517	0.0083561
235.45	0.057700	1411.0	0.00070870	151.00	151.04	0.80794	0.83531	1.2587	796.36	-0.28903	450.47	0.10947	0.016936	3.0974	0.32285	356.83	375.46	1.7611	0.65836	0.75609	144.02	54.958	9.3539	0.0083609
235.51	0.057875	1410.9	0.00070879	151.07	151.11	0.80825	0.83537	1.2588	796.08	-0.28890	450.06	0.10944	0.016927	3.1062	0.32193	356.87	375.50	1.7610	0.65851	0.75627	144.03	54.905	9.3560	0.0083657
235.57	0.058050	1410.7	0.00070887	151.14	151.19	0.80857	0.83543	1.2589	795.80	-0.28876	449.65	0.10941	0.016918	3.1150	0.32102	356.90	375.53	1.7609	0.65866	0.75646	144.04	54.852	9.3582	0.0083705
235.63	0.058225	1410.5	0.00070896	151.22	151.26	0.80888	0.83550	1.2590	795.53	-0.28863	449.24	0.10938	0.016909	3.1238	0.32012	356.93	375.57	1.7609	0.65881	0.75664	144.05	54.800	9.3604	0.0083753
235.69	0.058400	1410.3	0.00070905	151.29	151.33	0.80920	0.83556	1.2591	795.25	-0.28850	448.83	0.10935	0.016901	3.1326	0.31922	356.97	375.61	1.7608	0.65896	0.75682	144.06	54.748	9.3625	0.0083801
235.74	0.058575	1410.2	0.00070913	151.37	151.41	0.80951	0.83562	1.2592	794.98	-0.28837	448.42	0.10933	0.016892	3.1415	0.31832	357.00	375.65	1.7607	0.65911	0.75700	144.07	54.696	9.3647	0.0083849
235.80	0.058750	1410.0	0.00070922	151.44	151.48	0.80982	0.83569	1.2593	794.70	-0.28823	448.02	0.10930	0.016883	3.1503	0.31743	357.03	375.68	1.7606	0.65925	0.75719	144.08	54.644	9.3668	0.0083896
235.86	0.058925	1409.8	0.00070930	151.51	151.55	0.81013	0.83575	1.2594	794.43	-0.28810	447.61	0.10927	0.016874	3.1591	0.31655	357.07	375.72	1.7605	0.65940	0.75737	144.09	54.592	9.3690	0.0083944
235.92	0.059100	1409.7	0.00070939	151.59	151.63	0.81044	0.83581	1.2595	794.15	-0.28797	447.21	0.10924	0.016865	3.1679	0.31567	357.10	375.76	1.7605	0.65955	0.75755	144.10	54.541	9.3711	0.0083991
235.98	0.059275	1409.5	0.00070947	151.66	151.70	0.81075	0.83587	1.2596	793.88	-0.28784	446.81	0.10921	0.016856	3.1767	0.31480	357.13	375.79	1.7604	0.65969	0.75773	144.11	54.490	9.3733	0.0084038
236.03	0.059450	1409.3	0.00070956	151.73	151.77	0.81106	0.83594	1.2597	793.61	-0.28771	446.41	0.10918	0.016848	3.1855	0.31393	357.17	375.83	1.7603	0.65984	0.75791	144.12	54.439	9.3754	0.0084085
236.09	0.059625	1409.2	0.00070964	151.80	151.85	0.81136	0.83600	1.2598	793.34	-0.28758	446.01	0.10916	0.016839	3.1942	0.31306	357.20	375.87	1.7602	0.65999	0.75809	144.13	54.388	9.3775	0.0084132
236.15	0.059800	1409.0	0.00070973	151.88	151.92	0.81167	0.83606	1.2599	793.07	-0.28744	445.61	0.10913	0.016830	3.2030	0.31220	357.23	375.90	1.7602	0.66013	0.75827	144.14	54.338	9.3796	0.0084179
236.21	0.059975	1408.8	0.00070981	151.95	151.99	0.81198	0.83612	1.2600	792.80	-0.28731	445.22	0.10910	0.016822	3.2118	0.31135	357.27	375.94	1.7601	0.66028	0.75845	144.15	54.287	9.3817	0.0084226
236.26	0.060150	1408.7	0.00070990	152.02	152.06	0.81228	0.83619	1.2601	792.53	-0.28718	444.82	0.10907	0.016813	3.2206	0.31050	357.30	375.98	1.7600	0.66042	0.75863	144.16	54.237	9.3838	0.0084273
236.32	0.060325	1408.5	0.00070998	152.09	152.14	0.81259	0.83625	1.2602	792.26	-0.28705	444.43	0.10905	0.016804	3.2294	0.30965	357.33	376.01	1.7599	0.66057	0.75881	144.16	54.187	9.3859	0.0084319
236.38	0.060500	1408.3	0.00071006	152.16	152.21	0.81289	0.83631	1.2603	791.99	-0.28692	444.04	0.10902	0.016796	3.2382	0.30881	357.36	376.05	1.7598	0.66071	0.75899	144.17	54.138	9.3880	0.0084366
236.44	0.060675	1408.2	0.00071015	152.24	152.28	0.81319	0.83637	1.2604	791.72	-0.28679	443.65	0.10899	0.016787	3.2470	0.30798	357.40	376.08	1.7598	0.66086	0.75917	144.18	54.088	9.3901	0.0084412
236.49	0.060850	1408.0	0.00071023	152.31	152.35	0.81350	0.83643	1.2605	791.46	-0.28666	443.26	0.10896	0.016778	3.2558	0.30715	357.43	376.12	1.7597	0.66100	0.75934	144.19	54.039	9.3922	0.0084459
236.55	0.061025	1407.8	0.00071031	152.38	152.42	0.81380	0.83649	1.2606	791.19	-0.28653	442.87	0.10894	0.016770	3.2646	0.30632	357.46	376.16	1.7596	0.66114	0.75952	144.20	53.989	9.3943	0.0084505
236.61	0.061200	1407.7	0.00071040	152.45	152.49	0.81410	0.83656	1.2607	790.92	-0.28640	442.49	0.10891	0.016761	3.2733	0.30550	357.49	376.19	1.7595	0.66129	0.75970	144.21	53.940	9.3964	0.0084551
236.66	0.061375	1407.5	0.00071048	152.52	152.56	0.81440	0.83662	1.2608	790.66	-0.28627	442.10	0.10888	0.016753	3.2821	0.30468	357.53	376.23	1.7595	0.66143	0.75988	144.22	53.892	9.3985	0.0084597
236.72	0.061550	1407.3	0.00071056	152.59	152.64	0.81470	0.83668	1.2609	790.40	-0.28614	441.72	0.10885	0.016744	3.2909	0.30387	357.56	376.26	1.7594	0.66157	0.76005	144.23	53.843	9.4005	0.0084643
236.77	0.061725	1407.2	0.00071065	152.66	152.71	0.81500	0.83674	1.2610	790.13	-0.28601	441.34	0.10883	0.016736	3.2997	0.30306	357.59	376.30	1.7593	0.66171	0.76023	144.24	53.795	9.4026	0.0084688
236.83	0.061900	1407.0	0.00071073	152.73	152.78	0.81529	0.83680	1.2611	789.87	-0.28588	440.96	0.10880	0.016727	3.3085	0.30226	357.62	376.33	1.7592	0.66186	0.76040	144.25	53.746	9.4046	0.0084734
236.89	0.062075	1406.8	0.00071081	152.80	152.85	0.81559	0.83686	1.2612	789.61	-0.28576	440.58	0.10877	0.016719	3.3172	0.30146	357.66	376.37	1.7592	0.66200	0.76058	144.26	53.698	9.4067	0.0084780
236.94	0.062250	1406.7	0.00071089	152.87	152.92	0.81589	0.83692	1.2613	789.34	-0.28563	440.20	0.10874	0.016711	3.3260	0.30066	357.69	376.40	1.7591	0.66214	0.76076	144.26	53.650	9.4087	0.0084825
237.00	0.062425	1406.5	0.00071097	152.94	152.99	0.81618	0.83698	1.2614	789.08	-0.28550	439.83	0.10872	0.016702	3.3348	0.29987	357.72	376.44	1.7590	0.66228	0.76093	144.27	53.603	9.4108	0.0084870
237.05	0.062600	1406.4	0.00071106	153.01	153.06	0.81648	0.83704	1.2615	788.82	-0.28537	439.45	0.10869	0.016694	3.3436	0.29908	357.75	376.47	1.7590	0.66242	0.76111	144.28	53.555	9.4128	0.0084916
237.11	0.062775	1406.2	0.00071114	153.08	153.13	0.81677	0.83710	1.2616	788.56	-0.28524	439.08	0.10866	0.016685	3.3523	0.29830	357.78	376.51	1.7589	0.66256	0.76128	144.29	53.508	9.4149	0.0084961
237.16	0.062950	1406.0	0.00071122	153.15	153.20	0.81707	0.83716	1.2617	788.30	-0.28511	438.71	0.10864	0.016677	3.3611	0.29752	357.81	376.54	1.7588	0.66270	0.76146	144.30	53.461	9.4169	0.0085006
237.22	0.063125	1405.9	0.00071130	153.22	153.27	0.81736	0.83722	1.2618	788.04	-0.28499	438.34	0.10861	0.016669	3.3699	0.29675	357.85	376.58	1.7587	0.66284	0.76163	144.31	53.414	9.4189	0.0085051
237.27	0.063300	1405.7	0.00071138	153.29	153.34	0.81765	0.83728	1.2619	787.79	-0.28486	437.97	0.10858	0.016661	3.3786	0.29598	357.88	376.61	1.7587	0.66298	0.76180	144.32	53.367	9.4209	0.0085096
237.33	0.063475	1405.6	0.00071146	153.36	153.41	0.81794	0.83734	1.2620	787.53	-0.28473	437.60	0.10856	0.016652	3.3874	0.29521	357.91	376.65	1.7586	0.66312	0.76198	144.33	53.320	9.4229	0.0085141
237.38	0.063650	1405.4	0.00071154	153.43	153.48	0.81823	0.83740	1.2621	787.27	-0.28460	437.23	0.10853	0.016644	3.3962	0.29445	357.94	376.68	1.7585	0.66326	0.76215	144.33	53.274	9.4250	0.0085185
237.44	0.063825	1405.2	0.00071163	153.50	153.54	0.81852	0.83746	1.2622	787.01	-0.28448	436.87	0.10850	0.016636	3.4049	0.29369	357.97	376.72	1.7584	0.66340	0.76232	144.34	53.228	9.4270	0.0085230
237.49	0.064000	1405.1	0.00071171	153.57	153.61	0.81881	0.83752	1.2623	786.76	-0.28435	436.50	0.10848	0.016627	3.4137	0.29294	358.00	376.75	1.7584	0.66354	0.76249	144.35	53.181	9.4290	0.0085274
237.55	0.064175	1404.9	0.00071179	153.64	153.68	0.81910	0.83758	1.2624	786.50	-0.28422	436.14	0.10845	0.016619	3.4224	0.29219	358.03	376.79	1.7583	0.66368	0.76267	144.36	53.135	9.4310	0.0085319
237.60	0.064350	1404.8	0.00071187	153.70	153.75	0.81939	0.83764	1.2625	786.25	-0.28410	435.78	0.10843	0.016611	3.4312	0.29144	358.07	376.82	1.7582	0.66382	0.76284	144.37	53.090	9.4330	0.0085363
237.65	0.064525	1404.6	0.00071195	153.77	153.82	0.81968	0.83770	1.2626	785.99	-0.28397	435.42	0.10840	0.016603	3.4400	0.29070	358.10	376.85	1.7582	0.66395	0.76301	144.38	53.044	9.4349	0.0085407
237.71	0.064700	1404.4	0.00071203	153.84	153.89	0.81996	0.83775	1.2627	785.74	-0.28384	435.06	0.10837	0.016595	3.4487	0.28996	358.13	376.89	1.7581	0.66409	0.76318	144.39	52.999	9.4369	0.0085451
237.76	0.064875	1404.3	0.00071211	153.91	153.95	0.82025	0.83781	1.2628	785.49	-0.28372	434.70	0.10835	0.016587	3.4575	0.28923	358.16	376.92	1.7580	0.66423	0.76335	144.39	52.953	9.4389	0.0085495
237.82	0.065050	1404.1	0.00071219	153.98	154.02	0.82053	0.83787	1.2629	785.24	-0.28359	434.34	0.10832	0.016579	3.4662	0.28850	358.19	376.96	1.7580	0.66437	0.76352	144.40	52.908	9.4409	0.0085539
237.87	0.065225	1404.0	0.00071227	154.04	154.09	0.82082	0.83793	1.2630	784.98	-0.28347	433.99	0.10830	0.016570	3.4750	0.28777	358.22	376.99	1.7579	0.66450	0.76369	144.41	52.863	9.4428	0.0085583
237.92	0.065400	1403.8	0.00071235	154.11	154.16	0.82110	0.83799	1.2631	784.73	-0.28334	433.63	0.10827	0.016562	3.4837	0.28705	358.25	377.02	1.7578	0.66464	0.76386	144.42	52.818	9.4448	0.0085627
237.98	0.065575	1403.7	0.00071243	154.18	154.23	0.82139	0.83805	1.2632	784.48	-0.28322	433.28	0.10824	0.016554	3.4925	0.28633	358.28	377.06	1.7577	0.66478	0.76403	144.43	52.774	9.4468	0.0085670
238.03	0.065750	1403.5	0.00071251	154.25	154.29	0.82167	0.83811	1.2633	784.23	-0.28309	432.92	0.10822	0.016546	3.5012	0.28562	358.31	377.09	1.7577	0.66491	0.76420	144.44	52.729	9.4487	0.0085714
238.08	0.065925	1403.3	0.00071258	154.31	154.36	0.82195	0.83816	1.2634	783.98	-0.28297	432.57	0.10819	0.016538	3.5100	0.28490	358.34	377.13	1.7576	0.66505	0.76437	144.44	52.685	9.4507	0.0085757
238.14	0.066100	1403.2	0.00071266	154.38	154.43	0.82223	0.83822	1.2635	783.73	-0.28284	432.22	0.10817	0.016530	3.5187	0.28420	358.37	377.16	1.7575	0.66518	0.76454	144.45	52.641	9.4526	0.0085801
238.19	0.066275	1403.0	0.00071274	154.45	154.49	0.82251	0.83828	1.2636	783.48	-0.28272	431.87	0.10814	0.016522	3.5274	0.28349	358.40	377.19	1.7575	0.66532	0.76471	144.46	52.597	9.4546	0.0085844
238.24	0.066450	1402.9	0.00071282	154.51	154.56	0.82279	0.83834	1.2637	783.23	-0.28259	431.53	0.10812	0.016514	3.5362	0.28279	358.43	377.23	1.7574	0.66545	0.76488	144.47	52.553	9.4565	0.0085887
238.30	0.066625	1402.7	0.00071290	154.58	154.63	0.82307	0.83839	1.2638	782.99	-0.28247	431.18	0.10809	0.016506	3.5449	0.28209	358.47	377.26	1.7573	0.66559	0.76505	144.48	52.509	9.4585	0.0085930
238.35	0.066800	1402.6	0.00071298	154.65	154.70	0.82335	0.83845	1.2639	782.74	-0.28234	430.83	0.10806	0.016498	3.5537	0.28140	358.50	377.29	1.7573	0.66572	0.76521	144.49	52.466	9.4604	0.0085973
238.40	0.066975	1402.4	0.00071306	154.71	154.76	0.82363	0.83851	1.2640	782.49	-0.28222	430.49	0.10804	0.016490	3.5624	0.28071	358.53	377.33	1.7572	0.66586	0.76538	144.49	52.422	9.4623	0.0086016
238.45	0.067150	1402.3	0.00071313	154.78	154.83	0.82391	0.83857	1.2641	782.25	-0.28210	430.15	0.10801	0.016483	3.5711	0.28002	358.56	377.36	1.7571	0.66599	0.76555	144.50	52.379	9.4642	0.0086059
238.51	0.067325	1402.1	0.00071321	154.85	154.89	0.82419	0.83862	1.2642	782.00	-0.28197	429.80	0.10799	0.016475	3.5799	0.27934	358.59	377.39	1.7571	0.66612	0.76572	144.51	52.336	9.4662	0.0086102
238.56	0.067500	1402.0	0.00071329	154.91	154.96	0.82446	0.83868	1.2643	781.76	-0.28185	429.46	0.10796	0.016467	3.5886	0.27866	358.62	377.43	1.7570	0.66626	0.76588	144.52	52.293	9.4681	0.0086145
238.61	0.067675	1401.8	0.00071337	154.98	155.03	0.82474	0.83874	1.2644	781.51	-0.28172	429.12	0.10794	0.016459	3.5974	0.27798	358.65	377.46	1.7569	0.66639	0.76605	144.53	52.250	9.4700	0.0086187
238.66	0.067850	1401.6	0.00071345	155.04	155.09	0.82501	0.83880	1.2645	781.27	-0.28160	428.78	0.10791	0.016451	3.6061	0.27731	358.68	377.49	1.7569	0.66652	0.76622	144.53	52.208	9.4719	0.0086230
238.71	0.068025	1401.5	0.00071352	155.11	155.16	0.82529	0.83885	1.2646	781.03	-0.28148	428.45	0.10789	0.016443	3.6148	0.27664	358.71	377.52	1.7568	0.66666	0.76638	144.54	52.165	9.4738	0.0086272
238.77	0.068200	1401.3	0.00071360	155.17	155.22	0.82556	0.83891	1.2647	780.78	-0.28135	428.11	0.10786	0.016436	3.6235	0.27597	358.73	377.56	1.7567	0.66679	0.76655	144.55	52.123	9.4757	0.0086314
238.82	0.068375	1401.2	0.00071368	155.24	155.29	0.82584	0.83897	1.2648	780.54	-0.28123	427.77	0.10784	0.016428	3.6323	0.27531	358.76	377.59	1.7567	0.66692	0.76671	144.56	52.080	9.4776	0.0086357
238.87	0.068550	1401.0	0.00071376	155.30	155.35	0.82611	0.83902	1.2649	780.30	-0.28111	427.44	0.10781	0.016420	3.6410	0.27465	358.79	377.62	1.7566	0.66705	0.76688	144.57	52.038	9.4795	0.0086399
238.92	0.068725	1400.9	0.00071383	155.37	155.42	0.82638	0.83908	1.2649	780.06	-0.28099	427.11	0.10779	0.016412	3.6497	0.27399	358.82	377.65	1.7565	0.66718	0.76704	144.57	51.996	9.4814	0.0086441
238.97	0.068900	1400.7	0.00071391	155.43	155.48	0.82665	0.83913	1.2650	779.82	-0.28086	426.77	0.10776	0.016405	3.6585	0.27334	358.85	377.69	1.7565	0.66732	0.76721	144.58	51.955	9.4833	0.0086483
239.02	0.069075	1400.6	0.00071399	155.50	155.55	0.82692	0.83919	1.2651	779.58	-0.28074	426.44	0.10774	0.016397	3.6672	0.27269	358.88	377.72	1.7564	0.66745	0.76737	144.59	51.913	9.4851	0.0086525
239.07	0.069250	1400.4	0.00071406	155.56	155.61	0.82719	0.83925	1.2652	779.34	-0.28062	426.11	0.10772	0.016389	3.6759	0.27204	358.91	377.75	1.7564	0.66758	0.76754	144.60	51.872	9.4870	0.0086567
239.12	0.069425	1400.3	0.00071414	155.63	155.68	0.82746	0.83930	1.2653	779.10	-0.28050	425.78	0.10769	0.016381	3.6846	0.27140	358.94	377.78	1.7563	0.66771	0.76770	144.60	51.830	9.4889	0.0086608
239.18	0.069600	1400.1	0.00071421	155.69	155.74	0.82773	0.83936	1.2654	778.86	-0.28038	425.46	0.10767	0.016374	3.6933	0.27076	358.97	377.82	1.7562	0.66784	0.76786	144.61	51.789	9.4907	0.0086650
239.23	0.069775	1400.0	0.00071429	155.76	155.81	0.82800	0.83941	1.2655	778.62	-0.28025	425.13	0.10764	0.016366	3.7021	0.27012	359.00	377.85	1.7562	0.66797	0.76803	144.62	51.748	9.4926	0.0086692
239.28	0.069950	1399.8	0.00071437	155.82	155.87	0.82827	0.83947	1.2656	778.38	-0.28013	424.80	0.10762	0.016358	3.7108	0.26948	359.03	377.88	1.7561	0.66810	0.76819	144.63	51.707	9.4945	0.0086733
239.33	0.070125	1399.7	0.00071444	155.89	155.94	0.82854	0.83953	1.2657	778.14	-0.28001	424.48	0.10759	0.016351	3.7195	0.26885	359.06	377.91	1.7560	0.66823	0.76835	144.63	51.666	9.4963	0.0086774
239.38	0.070300	1399.5	0.00071452	155.95	156.00	0.82880	0.83958	1.2658	777.91	-0.27989	424.15	0.10757	0.016343	3.7282	0.26822	359.09	377.94	1.7560	0.66836	0.76852	144.64	51.625	9.4982	0.0086816
239.43	0.070475	1399.4	0.00071459	156.01	156.06	0.82907	0.83964	1.2659	777.67	-0.27977	423.83	0.10754	0.016336	3.7369	0.26760	359.12	377.98	1.7559	0.66849	0.76868	144.65	51.585	9.5000	0.0086857
239.48	0.070650	1399.2	0.00071467	156.08	156.13	0.82934	0.83969	1.2660	777.43	-0.27965	423.51	0.10752	0.016328	3.7456	0.26698	359.15	378.01	1.7558	0.66862	0.76884	144.66	51.545	9.5019	0.0086898
239.53	0.070825	1399.1	0.00071475	156.14	156.19	0.82960	0.83975	1.2661	777.20	-0.27953	423.19	0.10750	0.016321	3.7544	0.26636	359.17	378.04	1.7558	0.66875	0.76900	144.66	51.504	9.5037	0.0086939
239.58	0.071000	1399.0	0.00071482	156.20	156.25	0.82987	0.83980	1.2662	776.96	-0.27941	422.87	0.10747	0.016313	3.7631	0.26574	359.20	378.07	1.7557	0.66888	0.76916	144.67	51.464	9.5056	0.0086980
239.63	0.071175	1398.8	0.00071490	156.27	156.32	0.83013	0.83986	1.2663	776.73	-0.27929	422.55	0.10745	0.016305	3.7718	0.26513	359.23	378.10	1.7557	0.66900	0.76933	144.68	51.424	9.5074	0.0087021
239.68	0.071350	1398.7	0.00071497	156.33	156.38	0.83039	0.83991	1.2663	776.50	-0.27917	422.23	0.10742	0.016298	3.7805	0.26452	359.26	378.13	1.7556	0.66913	0.76949	144.69	51.384	9.5092	0.0087062
239.73	0.071525	1398.5	0.00071505	156.39	156.44	0.83066	0.83997	1.2664	776.26	-0.27904	421.91	0.10740	0.016290	3.7892	0.26391	359.29	378.16	1.7555	0.66926	0.76965	144.69	51.344	9.5110	0.0087103
239.78	0.071700	1398.4	0.00071512	156.46	156.51	0.83092	0.84002	1.2665	776.03	-0.27892	421.60	0.10738	0.016283	3.7979	0.26330	359.32	378.20	1.7555	0.66939	0.76981	144.70	51.305	9.5129	0.0087144
239.83	0.071875	1398.2	0.00071520	156.52	156.57	0.83118	0.84008	1.2666	775.80	-0.27880	421.28	0.10735	0.016276	3.8066	0.26270	359.35	378.23	1.7554	0.66952	0.76997	144.71	51.265	9.5147	0.0087184
239.88	0.072050	1398.1	0.00071527	156.58	156.63	0.83144	0.84013	1.2667	775.56	-0.27868	420.97	0.10733	0.016268	3.8153	0.26210	359.37	378.26	1.7554	0.66964	0.77013	144.72	51.226	9.5165	0.0087225
239.93	0.072225	1397.9	0.00071534	156.64	156.70	0.83170	0.84018	1.2668	775.33	-0.27857	420.65	0.10730	0.016261	3.8240	0.26150	359.40	378.29	1.7553	0.66977	0.77029	144.72	51.187	9.5183	0.0087265
239.98	0.072400	1397.8	0.00071542	156.71	156.76	0.83197	0.84024	1.2669	775.10	-0.27845	420.34	0.10728	0.016253	3.8327	0.26091	359.43	378.32	1.7552	0.66990	0.77045	144.73	51.148	9.5201	0.0087306
240.03	0.072575	1397.6	0.00071549	156.77	156.82	0.83222	0.84029	1.2670	774.87	-0.27833	420.03	0.10726	0.016246	3.8414	0.26032	359.46	378.35	1.7552	0.67002	0.77061	144.74	51.109	9.5219	0.0087346
240.08	0.072750	1397.5	0.00071557	156.83	156.88	0.83248	0.84035	1.2671	774.64	-0.27821	419.72	0.10723	0.016238	3.8501	0.25973	359.49	378.38	1.7551	0.67015	0.77077	144.75	51.070	9.5237	0.0087386
240.12	0.072925	1397.3	0.00071564	156.89	156.95	0.83274	0.84040	1.2672	774.41	-0.27809	419.41	0.10721	0.016231	3.8588	0.25915	359.52	378.41	1.7550	0.67028	0.77093	144.75	51.031	9.5255	0.0087426
240.17	0.073100	1397.2	0.00071572	156.96	157.01	0.83300	0.84046	1.2673	774.18	-0.27797	419.10	0.10719	0.016224	3.8675	0.25856	359.54	378.44	1.7550	0.67040	0.77109	144.76	50.993	9.5273	0.0087466
240.22	0.073275	1397.1	0.00071579	157.02	157.07	0.83326	0.84051	1.2674	773.95	-0.27785	418.79	0.10716	0.016216	3.8762	0.25798	359.57	378.48	1.7549	0.67053	0.77124	144.77	50.954	9.5291	0.0087506
240.27	0.073450	1396.9	0.00071586	157.08	157.13	0.83352	0.84056	1.2674	773.72	-0.27773	418.49	0.10714	0.016209	3.8849	0.25741	359.60	378.51	1.7549	0.67065	0.77140	144.77	50.916	9.5309	0.0087546
240.32	0.073625	1396.8	0.00071594	157.14	157.19	0.83377	0.84062	1.2675	773.50	-0.27761	418.18	0.10712	0.016202	3.8936	0.25683	359.63	378.54	1.7548	0.67078	0.77156	144.78	50.877	9.5327	0.0087586
240.37	0.073800	1396.6	0.00071601	157.20	157.26	0.83403	0.84067	1.2676	773.27	-0.27749	417.88	0.10709	0.016194	3.9023	0.25626	359.66	378.57	1.7547	0.67090	0.77172	144.79	50.839	9.5345	0.0087626
240.42	0.073975	1396.5	0.00071608	157.26	157.32	0.83428	0.84072	1.2677	773.04	-0.27738	417.57	0.10707	0.016187	3.9110	0.25569	359.68	378.60	1.7547	0.67103	0.77188	144.80	50.801	9.5362	0.0087666
240.47	0.074150	1396.3	0.00071616	157.33	157.38	0.83454	0.84078	1.2678	772.81	-0.27726	417.27	0.10705	0.016180	3.9197	0.25512	359.71	378.63	1.7546	0.67115	0.77203	144.80	50.763	9.5380	0.0087705
240.51	0.074325	1396.2	0.00071623	157.39	157.44	0.83479	0.84083	1.2679	772.59	-0.27714	416.97	0.10702	0.016173	3.9284	0.25456	359.74	378.66	1.7546	0.67128	0.77219	144.81	50.726	9.5398	0.0087745
240.56	0.074500	1396.1	0.00071630	157.45	157.50	0.83505	0.84088	1.2680	772.36	-0.27702	416.66	0.10700	0.016165	3.9371	0.25400	359.77	378.69	1.7545	0.67140	0.77235	144.82	50.688	9.5415	0.0087784
240.61	0.074675	1395.9	0.00071638	157.51	157.56	0.83530	0.84094	1.2681	772.14	-0.27690	416.36	0.10698	0.016158	3.9458	0.25344	359.79	378.72	1.7545	0.67153	0.77250	144.82	50.651	9.5433	0.0087824
240.66	0.074850	1395.8	0.00071645	157.57	157.62	0.83555	0.84099	1.2682	771.91	-0.27679	416.06	0.10695	0.016151	3.9544	0.25288	359.82	378.75	1.7544	0.67165	0.77266	144.83	50.613	9.5451	0.0087863
240.71	0.075025	1395.6	0.00071652	157.63	157.68	0.83581	0.84104	1.2683	771.69	-0.27667	415.77	0.10693	0.016144	3.9631	0.25233	359.85	378.78	1.7543	0.67177	0.77282	144.84	50.576	9.5468	0.0087903
240.75	0.075200	1395.5	0.00071659	157.69	157.75	0.83606	0.84110	1.2683	771.46	-0.27655	415.47	0.10691	0.016137	3.9718	0.25177	359.88	378.81	1.7543	0.67190	0.77297	144.84	50.539	9.5486	0.0087942
240.80	0.075375	1395.4	0.00071667	157.75	157.81	0.83631	0.84115	1.2684	771.24	-0.27643	415.17	0.10689	0.016129	3.9805	0.25123	359.91	378.84	1.7542	0.67202	0.77313	144.85	50.502	9.5503	0.0087981
240.85	0.075550	1395.2	0.00071674	157.81	157.87	0.83656	0.84120	1.2685	771.02	-0.27632	414.87	0.10686	0.016122	3.9892	0.25068	359.93	378.87	1.7542	0.67214	0.77328	144.86	50.465	9.5521	0.0088020
240.90	0.075725	1395.1	0.00071681	157.87	157.93	0.83681	0.84125	1.2686	770.79	-0.27620	414.58	0.10684	0.016115	3.9979	0.25013	359.96	378.90	1.7541	0.67227	0.77344	144.86	50.428	9.5538	0.0088059
240.95	0.075900	1394.9	0.00071688	157.93	157.99	0.83706	0.84131	1.2687	770.57	-0.27608	414.28	0.10682	0.016108	4.0065	0.24959	359.99	378.93	1.7541	0.67239	0.77360	144.87	50.391	9.5555	0.0088098
240.99	0.076075	1394.8	0.00071695	157.99	158.05	0.83731	0.84136	1.2688	770.35	-0.27596	413.99	0.10679	0.016101	4.0152	0.24905	360.01	378.96	1.7540	0.67251	0.77375	144.88	50.355	9.5573	0.0088137
241.04	0.076250	1394.6	0.00071703	158.05	158.11	0.83756	0.84141	1.2689	770.13	-0.27585	413.70	0.10677	0.016094	4.0239	0.24852	360.04	378.99	1.7539	0.67263	0.77390	144.89	50.318	9.5590	0.0088176
241.09	0.076425	1394.5	0.00071710	158.11	158.17	0.83781	0.84146	1.2690	769.91	-0.27573	413.41	0.10675	0.016087	4.0326	0.24798	360.07	379.02	1.7539	0.67276	0.77406	144.89	50.282	9.5607	0.0088214
241.13	0.076600	1394.4	0.00071717	158.17	158.23	0.83806	0.84151	1.2691	769.68	-0.27562	413.11	0.10673	0.016080	4.0413	0.24745	360.10	379.05	1.7538	0.67288	0.77421	144.90	50.245	9.5625	0.0088253
241.18	0.076775	1394.2	0.00071724	158.23	158.29	0.83831	0.84157	1.2691	769.46	-0.27550	412.82	0.10670	0.016072	4.0499	0.24692	360.12	379.08	1.7538	0.67300	0.77437	144.91	50.209	9.5642	0.0088292
241.23	0.076950	1394.1	0.00071731	158.29	158.35	0.83855	0.84162	1.2692	769.24	-0.27538	412.53	0.10668	0.016065	4.0586	0.24639	360.15	379.11	1.7537	0.67312	0.77452	144.91	50.173	9.5659	0.0088330
241.28	0.077125	1394.0	0.00071738	158.35	158.41	0.83880	0.84167	1.2693	769.02	-0.27527	412.25	0.10666	0.016058	4.0673	0.24586	360.18	379.14	1.7537	0.67324	0.77468	144.92	50.137	9.5676	0.0088369
241.32	0.077300	1393.8	0.00071746	158.41	158.47	0.83905	0.84172	1.2694	768.81	-0.27515	411.96	0.10664	0.016051	4.0759	0.24534	360.20	379.17	1.7536	0.67336	0.77483	144.93	50.101	9.5693	0.0088407
241.37	0.077475	1393.7	0.00071753	158.47	158.53	0.83929	0.84177	1.2695	768.59	-0.27503	411.67	0.10661	0.016044	4.0846	0.24482	360.23	379.20	1.7535	0.67348	0.77498	144.93	50.066	9.5710	0.0088445
241.42	0.077650	1393.5	0.00071760	158.53	158.59	0.83954	0.84183	1.2696	768.37	-0.27492	411.38	0.10659	0.016037	4.0933	0.24430	360.26	379.23	1.7535	0.67360	0.77513	144.94	50.030	9.5728	0.0088483
241.46	0.077825	1393.4	0.00071767	158.59	158.64	0.83978	0.84188	1.2697	768.15	-0.27480	411.10	0.10657	0.016030	4.1020	0.24379	360.28	379.26	1.7534	0.67372	0.77529	144.95	49.995	9.5745	0.0088522
241.51	0.078000	1393.3	0.00071774	158.65	158.70	0.84003	0.84193	1.2698	767.93	-0.27469	410.81	0.10655	0.016023	4.1106	0.24327	360.31	379.29	1.7534	0.67384	0.77544	144.95	49.959	9.5762	0.0088560
241.56	0.078175	1393.1	0.00071781	158.71	158.76	0.84027	0.84198	1.2698	767.72	-0.27457	410.53	0.10652	0.016016	4.1193	0.24276	360.34	379.32	1.7533	0.67396	0.77559	144.96	49.924	9.5779	0.0088598
241.60	0.078350	1393.0	0.00071788	158.77	158.82	0.84051	0.84203	1.2699	767.50	-0.27446	410.25	0.10650	0.016009	4.1280	0.24225	360.36	379.34	1.7533	0.67408	0.77574	144.96	49.889	9.5795	0.0088636
241.65	0.078525	1392.9	0.00071795	158.82	158.88	0.84076	0.84208	1.2700	767.28	-0.27434	409.97	0.10648	0.016003	4.1366	0.24174	360.39	379.37	1.7532	0.67420	0.77590	144.97	49.854	9.5812	0.0088674
241.69	0.078700	1392.7	0.00071802	158.88	158.94	0.84100	0.84213	1.2701	767.07	-0.27423	409.68	0.10646	0.015996	4.1453	0.24124	360.42	379.40	1.7532	0.67432	0.77605	144.98	49.819	9.5829	0.0088712
241.74	0.078875	1392.6	0.00071809	158.94	159.00	0.84124	0.84219	1.2702	766.85	-0.27411	409.40	0.10644	0.015989	4.1540	0.24073	360.44	379.43	1.7531	0.67444	0.77620	144.98	49.784	9.5846	0.0088749
241.79	0.079050	1392.4	0.00071816	159.00	159.06	0.84148	0.84224	1.2703	766.64	-0.27400	409.12	0.10641	0.015982	4.1626	0.24023	360.47	379.46	1.7531	0.67456	0.77635	144.99	49.749	9.5863	0.0088787
241.83	0.079225	1392.3	0.00071823	159.06	159.11	0.84172	0.84229	1.2704	766.42	-0.27388	408.84	0.10639	0.015975	4.1713	0.23973	360.50	379.49	1.7530	0.67468	0.77650	145.00	49.714	9.5880	0.0088825
241.88	0.079400	1392.2	0.00071830	159.12	159.17	0.84196	0.84234	1.2705	766.21	-0.27377	408.57	0.10637	0.015968	4.1799	0.23924	360.52	379.52	1.7529	0.67480	0.77665	145.00	49.680	9.5897	0.0088862
241.92	0.079575	1392.0	0.00071837	159.17	159.23	0.84220	0.84239	1.2705	765.99	-0.27365	408.29	0.10635	0.015961	4.1886	0.23874	360.55	379.55	1.7529	0.67492	0.77680	145.01	49.645	9.5913	0.0088900
241.97	0.079750	1391.9	0.00071844	159.23	159.29	0.84244	0.84244	1.2706	765.78	-0.27354	408.01	0.10633	0.015954	4.1973	0.23825	360.58	379.58	1.7528	0.67504	0.77695	145.02	49.611	9.5930	0.0088937
242.02	0.079925	1391.8	0.00071851	159.29	159.35	0.84268	0.84249	1.2707	765.57	-0.27343	407.74	0.10631	0.015948	4.2059	0.23776	360.60	379.60	1.7528	0.67515	0.77711	145.02	49.576	9.5947	0.0088975
242.06	0.080100	1391.6	0.00071858	159.35	159.41	0.84292	0.84254	1.2708	765.35	-0.27331	407.46	0.10628	0.015941	4.2146	0.23727	360.63	379.63	1.7527	0.67527	0.77726	145.03	49.542	9.5963	0.0089012
242.11	0.080275	1391.5	0.00071865	159.41	159.46	0.84316	0.84259	1.2709	765.14	-0.27320	407.19	0.10626	0.015934	4.2232	0.23679	360.65	379.66	1.7527	0.67539	0.77741	145.03	49.508	9.5980	0.0089049
242.15	0.080450	1391.4	0.00071872	159.46	159.52	0.84340	0.84264	1.2710	764.93	-0.27308	406.91	0.10624	0.015927	4.2319	0.23630	360.68	379.69	1.7526	0.67551	0.77756	145.04	49.474	9.5996	0.0089087
242.20	0.080625	1391.2	0.00071879	159.52	159.58	0.84364	0.84269	1.2711	764.72	-0.27297	406.64	0.10622	0.015920	4.2405	0.23582	360.71	379.72	1.7526	0.67563	0.77770	145.05	49.440	9.6013	0.0089124
242.24	0.080800	1391.1	0.00071886	159.58	159.64	0.84387	0.84274	1.2711	764.51	-0.27286	406.37	0.10620	0.015914	4.2492	0.23534	360.73	379.75	1.7525	0.67574	0.77785	145.05	49.407	9.6029	0.0089161
242.29	0.080975	1391.0	0.00071893	159.64	159.69	0.84411	0.84279	1.2712	764.29	-0.27274	406.09	0.10618	0.015907	4.2578	0.23486	360.76	379.78	1.7525	0.67586	0.77800	145.06	49.373	9.6046	0.0089198
242.33	0.081150	1390.8	0.00071900	159.69	159.75	0.84435	0.84284	1.2713	764.08	-0.27263	405.82	0.10615	0.015900	4.2665	0.23438	360.78	379.80	1.7524	0.67598	0.77815	145.07	49.339	9.6062	0.0089235
242.38	0.081325	1390.7	0.00071907	159.75	159.81	0.84458	0.84289	1.2714	763.87	-0.27252	405.55	0.10613	0.015893	4.2751	0.23391	360.81	379.83	1.7524	0.67609	0.77830	145.07	49.306	9.6079	0.0089272
242.42	0.081500	1390.6	0.00071913	159.81	159.87	0.84482	0.84294	1.2715	763.66	-0.27240	405.28	0.10611	0.015887	4.2838	0.23344	360.84	379.86	1.7523	0.67621	0.77845	145.08	49.272	9.6095	0.0089309
242.47	0.081675	1390.4	0.00071920	159.86	159.92	0.84505	0.84299	1.2716	763.45	-0.27229	405.01	0.10609	0.015880	4.2924	0.23297	360.86	379.89	1.7523	0.67633	0.77860	145.08	49.239	9.6112	0.0089345
242.51	0.081850	1390.3	0.00071927	159.92	159.98	0.84529	0.84304	1.2717	763.25	-0.27218	404.75	0.10607	0.015873	4.3011	0.23250	360.89	379.92	1.7522	0.67644	0.77875	145.09	49.206	9.6128	0.0089382
242.56	0.082025	1390.2	0.00071934	159.98	160.04	0.84552	0.84309	1.2717	763.04	-0.27206	404.48	0.10605	0.015867	4.3097	0.23203	360.91	379.95	1.7522	0.67656	0.77889	145.10	49.173	9.6144	0.0089419
242.60	0.082200	1390.0	0.00071941	160.03	160.09	0.84575	0.84314	1.2718	762.83	-0.27195	404.21	0.10603	0.015860	4.3184	0.23157	360.94	379.97	1.7521	0.67667	0.77904	145.10	49.140	9.6161	0.0089455
242.65	0.082375	1389.9	0.00071948	160.09	160.15	0.84599	0.84319	1.2719	762.62	-0.27184	403.95	0.10600	0.015853	4.3270	0.23111	360.96	380.00	1.7520	0.67679	0.77919	145.11	49.107	9.6177	0.0089492
242.69	0.082550	1389.8	0.00071955	160.15	160.21	0.84622	0.84324	1.2720	762.41	-0.27173	403.68	0.10598	0.015847	4.3357	0.23065	360.99	380.03	1.7520	0.67691	0.77934	145.11	49.074	9.6193	0.0089528
242.73	0.082725	1389.6	0.00071961	160.20	160.26	0.84645	0.84329	1.2721	762.20	-0.27161	403.42	0.10596	0.015840	4.3443	0.23019	361.01	380.06	1.7519	0.67702	0.77948	145.12	49.041	9.6209	0.0089565
242.78	0.082900	1389.5	0.00071968	160.26	160.32	0.84668	0.84334	1.2722	762.00	-0.27150	403.15	0.10594	0.015833	4.3529	0.22973	361.04	380.09	1.7519	0.67714	0.77963	145.13	49.009	9.6225	0.0089601
242.82	0.083075	1389.4	0.00071975	160.32	160.38	0.84692	0.84339	1.2723	761.79	-0.27139	402.89	0.10592	0.015827	4.3616	0.22927	361.07	380.11	1.7518	0.67725	0.77978	145.13	48.976	9.6242	0.0089637
242.87	0.083250	1389.2	0.00071982	160.37	160.43	0.84715	0.84344	1.2723	761.59	-0.27128	402.63	0.10590	0.015820	4.3702	0.22882	361.09	380.14	1.7518	0.67737	0.77992	145.14	48.944	9.6258	0.0089674
242.91	0.083425	1389.1	0.00071989	160.43	160.49	0.84738	0.84349	1.2724	761.38	-0.27116	402.37	0.10588	0.015813	4.3789	0.22837	361.12	380.17	1.7517	0.67748	0.78007	145.14	48.911	9.6274	0.0089710
242.96	0.083600	1389.0	0.00071995	160.48	160.54	0.84761	0.84354	1.2725	761.17	-0.27105	402.10	0.10586	0.015807	4.3875	0.22792	361.14	380.20	1.7517	0.67759	0.78022	145.15	48.879	9.6290	0.0089746
243.00	0.083775	1388.8	0.00072002	160.54	160.60	0.84784	0.84358	1.2726	760.97	-0.27094	401.84	0.10584	0.015800	4.3961	0.22747	361.17	380.22	1.7516	0.67771	0.78036	145.16	48.847	9.6306	0.0089782
243.04	0.083950	1388.7	0.00072009	160.60	160.66	0.84807	0.84363	1.2727	760.76	-0.27083	401.58	0.10582	0.015794	4.4048	0.22703	361.19	380.25	1.7516	0.67782	0.78051	145.16	48.815	9.6322	0.0089818
243.09	0.084125	1388.6	0.00072016	160.65	160.71	0.84830	0.84368	1.2728	760.56	-0.27072	401.33	0.10579	0.015787	4.4134	0.22658	361.22	380.28	1.7515	0.67794	0.78066	145.17	48.783	9.6338	0.0089854
243.13	0.084300	1388.5	0.00072022	160.71	160.77	0.84852	0.84373	1.2728	760.36	-0.27061	401.07	0.10577	0.015781	4.4220	0.22614	361.24	380.31	1.7515	0.67805	0.78080	145.17	48.751	9.6354	0.0089890
243.17	0.084475	1388.3	0.00072029	160.76	160.82	0.84875	0.84378	1.2729	760.15	-0.27049	400.81	0.10575	0.015774	4.4307	0.22570	361.27	380.33	1.7514	0.67816	0.78095	145.18	48.719	9.6370	0.0089926
243.22	0.084650	1388.2	0.00072036	160.82	160.88	0.84898	0.84383	1.2730	759.95	-0.27038	400.55	0.10573	0.015768	4.4393	0.22526	361.29	380.36	1.7514	0.67828	0.78109	145.19	48.687	9.6386	0.0089961
243.26	0.084825	1388.1	0.00072042	160.87	160.93	0.84921	0.84388	1.2731	759.74	-0.27027	400.30	0.10571	0.015761	4.4479	0.22482	361.32	380.39	1.7513	0.67839	0.78124	145.19	48.655	9.6402	0.0089997
243.30	0.085000	1387.9	0.00072049	160.93	160.99	0.84943	0.84392	1.2732	759.54	-0.27016	400.04	0.10569	0.015755	4.4566	0.22439	361.34	380.42	1.7513	0.67850	0.78138	145.20	48.624	9.6417	0.0090033
243.35	0.085175	1387.8	0.00072056	160.98	161.04	0.84966	0.84397	1.2733	759.34	-0.27005	399.78	0.10567	0.015748	4.4652	0.22395	361.37	380.44	1.7512	0.67862	0.78153	145.20	48.592	9.6433	0.0090068
243.39	0.085350	1387.7	0.00072062	161.04	161.10	0.84989	0.84402	1.2733	759.14	-0.26994	399.53	0.10565	0.015742	4.4738	0.22352	361.39	380.47	1.7512	0.67873	0.78167	145.21	48.561	9.6449	0.0090104
243.43	0.085525	1387.6	0.00072069	161.09	161.15	0.85011	0.84407	1.2734	758.94	-0.26983	399.28	0.10563	0.015735	4.4824	0.22309	361.42	380.50	1.7511	0.67884	0.78182	145.21	48.530	9.6465	0.0090139
243.48	0.085700	1387.4	0.00072076	161.15	161.21	0.85034	0.84412	1.2735	758.73	-0.26972	399.02	0.10561	0.015729	4.4911	0.22266	361.44	380.52	1.7511	0.67895	0.78196	145.22	48.498	9.6481	0.0090175
243.52	0.085875	1387.3	0.00072082	161.20	161.26	0.85056	0.84417	1.2736	758.53	-0.26961	398.77	0.10559	0.015722	4.4997	0.22224	361.47	380.55	1.7510	0.67907	0.78210	145.23	48.467	9.6496	0.0090210
243.56	0.086050	1387.2	0.00072089	161.26	161.32	0.85079	0.84421	1.2737	758.33	-0.26950	398.52	0.10557	0.015716	4.5083	0.22181	361.49	380.58	1.7510	0.67918	0.78225	145.23	48.436	9.6512	0.0090246
243.61	0.086225	1387.0	0.00072096	161.31	161.37	0.85101	0.84426	1.2738	758.13	-0.26939	398.27	0.10555	0.015710	4.5169	0.22139	361.52	380.61	1.7510	0.67929	0.78239	145.24	48.405	9.6528	0.0090281
243.65	0.086400	1386.9	0.00072102	161.37	161.43	0.85124	0.84431	1.2738	757.93	-0.26928	398.02	0.10553	0.015703	4.5256	0.22097	361.54	380.63	1.7509	0.67940	0.78253	145.24	48.374	9.6543	0.0090316
243.69	0.086575	1386.8	0.00072109	161.42	161.48	0.85146	0.84436	1.2739	757.73	-0.26917	397.77	0.10551	0.015697	4.5342	0.22055	361.57	380.66	1.7509	0.67951	0.78268	145.25	48.343	9.6559	0.0090351
243.74	0.086750	1386.7	0.00072116	161.48	161.54	0.85168	0.84441	1.2740	757.53	-0.26906	397.52	0.10549	0.015690	4.5428	0.22013	361.59	380.69	1.7508	0.67963	0.78282	145.25	48.313	9.6575	0.0090386
243.78	0.086925	1386.5	0.00072122	161.53	161.59	0.85191	0.84445	1.2741	757.33	-0.26895	397.27	0.10547	0.015684	4.5514	0.21971	361.61	380.71	1.7508	0.67974	0.78296	145.26	48.282	9.6590	0.0090421
243.82	0.087100	1386.4	0.00072129	161.58	161.65	0.85213	0.84450	1.2742	757.13	-0.26884	397.02	0.10545	0.015678	4.5601	0.21930	361.64	380.74	1.7507	0.67985	0.78311	145.26	48.251	9.6606	0.0090456
243.86	0.087275	1386.3	0.00072135	161.64	161.70	0.85235	0.84455	1.2742	756.94	-0.26873	396.77	0.10543	0.015671	4.5687	0.21888	361.66	380.77	1.7507	0.67996	0.78325	145.27	48.221	9.6621	0.0090491
243.91	0.087450	1386.2	0.00072142	161.69	161.76	0.85257	0.84460	1.2743	756.74	-0.26862	396.53	0.10540	0.015665	4.5773	0.21847	361.69	380.79	1.7506	0.68007	0.78339	145.28	48.190	9.6637	0.0090526
243.95	0.087625	1386.0	0.00072149	161.75	161.81	0.85279	0.84464	1.2744	756.54	-0.26851	396.28	0.10538	0.015659	4.5859	0.21806	361.71	380.82	1.7506	0.68018	0.78353	145.28	48.160	9.6652	0.0090561
243.99	0.087800	1385.9	0.00072155	161.80	161.86	0.85301	0.84469	1.2745	756.34	-0.26840	396.03	0.10536	0.015652	4.5945	0.21765	361.74	380.85	1.7505	0.68029	0.78368	145.29	48.130	9.6668	0.0090596
244.03	0.087975	1385.8	0.00072162	161.85	161.92	0.85323	0.84474	1.2746	756.15	-0.26829	395.79	0.10534	0.015646	4.6031	0.21724	361.76	380.87	1.7505	0.68040	0.78382	145.29	48.100	9.6683	0.0090631
244.07	0.088150	1385.7	0.00072168	161.91	161.97	0.85346	0.84478	1.2747	755.95	-0.26818	395.55	0.10532	0.015640	4.6118	0.21684	361.78	380.90	1.7504	0.68051	0.78396	145.30	48.070	9.6698	0.0090665
244.12	0.088325	1385.5	0.00072175	161.96	162.03	0.85367	0.84483	1.2747	755.75	-0.26807	395.30	0.10530	0.015633	4.6204	0.21643	361.81	380.93	1.7504	0.68062	0.78410	145.30	48.040	9.6714	0.0090700
244.16	0.088500	1385.4	0.00072181	162.01	162.08	0.85389	0.84488	1.2748	755.56	-0.26796	395.06	0.10528	0.015627	4.6290	0.21603	361.83	380.95	1.7503	0.68073	0.78424	145.31	48.010	9.6729	0.0090734
244.20	0.088675	1385.3	0.00072188	162.07	162.13	0.85411	0.84493	1.2749	755.36	-0.26785	394.82	0.10526	0.015621	4.6376	0.21563	361.86	380.98	1.7503	0.68084	0.78438	145.31	47.980	9.6744	0.0090769
244.24	0.088850	1385.2	0.00072194	162.12	162.19	0.85433	0.84497	1.2750	755.16	-0.26774	394.57	0.10524	0.015615	4.6462	0.21523	361.88	381.00	1.7502	0.68095	0.78452	145.32	47.950	9.6760	0.0090803
244.28	0.089025	1385.0	0.00072201	162.18	162.24	0.85455	0.84502	1.2751	754.97	-0.26763	394.33	0.10523	0.015608	4.6548	0.21483	361.91	381.03	1.7502	0.68106	0.78467	145.33	47.920	9.6775	0.0090838
244.33	0.089200	1384.9	0.00072207	162.23	162.29	0.85477	0.84507	1.2751	754.77	-0.26753	394.09	0.10521	0.015602	4.6634	0.21443	361.93	381.06	1.7501	0.68117	0.78481	145.33	47.891	9.6790	0.0090872
244.37	0.089375	1384.8	0.00072214	162.28	162.35	0.85499	0.84511	1.2752	754.58	-0.26742	393.85	0.10519	0.015596	4.6720	0.21404	361.95	381.08	1.7501	0.68128	0.78495	145.34	47.861	9.6805	0.0090906
244.41	0.089550	1384.7	0.00072220	162.33	162.40	0.85520	0.84516	1.2753	754.39	-0.26731	393.61	0.10517	0.015590	4.6806	0.21365	361.98	381.11	1.7501	0.68139	0.78509	145.34	47.832	9.6821	0.0090941
244.45	0.089725	1384.5	0.00072227	162.39	162.45	0.85542	0.84521	1.2754	754.19	-0.26720	393.37	0.10515	0.015584	4.6893	0.21325	362.00	381.14	1.7500	0.68150	0.78523	145.35	47.802	9.6836	0.0090975
244.49	0.089900	1384.4	0.00072233	162.44	162.51	0.85564	0.84525	1.2755	754.00	-0.26709	393.13	0.10513	0.015577	4.6979	0.21286	362.03	381.16	1.7500	0.68160	0.78537	145.35	47.773	9.6851	0.0091009
244.53	0.090075	1384.3	0.00072240	162.49	162.56	0.85585	0.84530	1.2755	753.80	-0.26698	392.90	0.10511	0.015571	4.7065	0.21247	362.05	381.19	1.7499	0.68171	0.78551	145.36	47.744	9.6866	0.0091043
244.58	0.090250	1384.2	0.00072246	162.55	162.61	0.85607	0.84535	1.2756	753.61	-0.26688	392.66	0.10509	0.015565	4.7151	0.21209	362.07	381.21	1.7499	0.68182	0.78565	145.36	47.715	9.6881	0.0091077
244.62	0.090425	1384.0	0.00072252	162.60	162.66	0.85628	0.84539	1.2757	753.42	-0.26677	392.42	0.10507	0.015559	4.7237	0.21170	362.10	381.24	1.7498	0.68193	0.78579	145.37	47.685	9.6896	0.0091111
244.66	0.090600	1383.9	0.00072259	162.65	162.72	0.85650	0.84544	1.2758	753.23	-0.26666	392.19	0.10505	0.015553	4.7323	0.21131	362.12	381.27	1.7498	0.68204	0.78593	145.37	47.656	9.6911	0.0091145
244.70	0.090775	1383.8	0.00072265	162.70	162.77	0.85671	0.84548	1.2759	753.03	-0.26655	391.95	0.10503	0.015547	4.7409	0.21093	362.14	381.29	1.7497	0.68215	0.78607	145.38	47.627	9.6926	0.0091179
244.74	0.090950	1383.7	0.00072272	162.76	162.82	0.85693	0.84553	1.2759	752.84	-0.26644	391.71	0.10501	0.015540	4.7495	0.21055	362.17	381.32	1.7497	0.68225	0.78620	145.38	47.599	9.6941	0.0091213
244.78	0.091125	1383.5	0.00072278	162.81	162.87	0.85714	0.84558	1.2760	752.65	-0.26634	391.48	0.10499	0.015534	4.7581	0.21017	362.19	381.34	1.7496	0.68236	0.78634	145.39	47.570	9.6956	0.0091247
244.82	0.091300	1383.4	0.00072285	162.86	162.93	0.85735	0.84562	1.2761	752.46	-0.26623	391.25	0.10497	0.015528	4.7667	0.20979	362.21	381.37	1.7496	0.68247	0.78648	145.39	47.541	9.6971	0.0091280
244.86	0.091475	1383.3	0.00072291	162.91	162.98	0.85757	0.84567	1.2762	752.27	-0.26612	391.01	0.10495	0.015522	4.7753	0.20941	362.24	381.39	1.7496	0.68258	0.78662	145.40	47.512	9.6986	0.0091314
244.91	0.091650	1383.2	0.00072297	162.97	163.03	0.85778	0.84571	1.2763	752.08	-0.26601	390.78	0.10493	0.015516	4.7839	0.20904	362.26	381.42	1.7495	0.68268	0.78676	145.40	47.484	9.7001	0.0091348
244.95	0.091825	1383.1	0.00072304	163.02	163.08	0.85799	0.84576	1.2763	751.89	-0.26591	390.55	0.10491	0.015510	4.7925	0.20866	362.29	381.45	1.7495	0.68279	0.78690	145.41	47.455	9.7016	0.0091381
244.99	0.092000	1382.9	0.00072310	163.07	163.14	0.85821	0.84581	1.2764	751.70	-0.26580	390.32	0.10489	0.015504	4.8011	0.20829	362.31	381.47	1.7494	0.68290	0.78704	145.41	47.427	9.7031	0.0091415
245.03	0.092175	1382.8	0.00072316	163.12	163.19	0.85842	0.84585	1.2765	751.51	-0.26569	390.08	0.10487	0.015498	4.8097	0.20791	362.33	381.50	1.7494	0.68300	0.78717	145.42	47.399	9.7045	0.0091448
245.07	0.092350	1382.7	0.00072323	163.17	163.24	0.85863	0.84590	1.2766	751.32	-0.26558	389.85	0.10485	0.015492	4.8183	0.20754	362.36	381.52	1.7493	0.68311	0.78731	145.42	47.370	9.7060	0.0091482
245.11	0.092525	1382.6	0.00072329	163.22	163.29	0.85884	0.84594	1.2767	751.13	-0.26548	389.62	0.10483	0.015486	4.8269	0.20717	362.38	381.55	1.7493	0.68322	0.78745	145.43	47.342	9.7075	0.0091515
245.15	0.092700	1382.4	0.00072335	163.28	163.34	0.85905	0.84599	1.2767	750.94	-0.26537	389.39	0.10482	0.015480	4.8355	0.20681	362.40	381.57	1.7492	0.68332	0.78759	145.43	47.314	9.7090	0.0091549
245.19	0.092875	1382.3	0.00072342	163.33	163.40	0.85926	0.84603	1.2768	750.75	-0.26526	389.16	0.10480	0.015474	4.8440	0.20644	362.43	381.60	1.7492	0.68343	0.78772	145.44	47.286	9.7105	0.0091582
245.23	0.093050	1382.2	0.00072348	163.38	163.45	0.85947	0.84608	1.2769	750.56	-0.26516	388.94	0.10478	0.015468	4.8526	0.20607	362.45	381.62	1.7492	0.68354	0.78786	145.44	47.258	9.7119	0.0091615
245.27	0.093225	1382.1	0.00072354	163.43	163.50	0.85968	0.84612	1.2770	750.37	-0.26505	388.71	0.10476	0.015462	4.8612	0.20571	362.47	381.65	1.7491	0.68364	0.78800	145.45	47.230	9.7134	0.0091648
245.31	0.093400	1382.0	0.00072361	163.48	163.55	0.85989	0.84617	1.2771	750.19	-0.26494	388.48	0.10474	0.015456	4.8698	0.20535	362.49	381.67	1.7491	0.68375	0.78814	145.45	47.202	9.7149	0.0091681
245.35	0.093575	1381.8	0.00072367	163.53	163.60	0.86010	0.84622	1.2771	750.00	-0.26484	388.25	0.10472	0.015450	4.8784	0.20498	362.52	381.70	1.7490	0.68385	0.78827	145.46	47.174	9.7163	0.0091715
245.39	0.093750	1381.7	0.00072373	163.59	163.65	0.86031	0.84626	1.2772	749.81	-0.26473	388.03	0.10470	0.015444	4.8870	0.20462	362.54	381.72	1.7490	0.68396	0.78841	145.46	47.146	9.7178	0.0091748
245.43	0.093925	1381.6	0.00072380	163.64	163.70	0.86052	0.84631	1.2773	749.63	-0.26463	387.80	0.10468	0.015438	4.8956	0.20427	362.56	381.75	1.7489	0.68406	0.78855	145.47	47.119	9.7193	0.0091781
245.47	0.094100	1381.5	0.00072386	163.69	163.76	0.86073	0.84635	1.2774	749.44	-0.26452	387.58	0.10466	0.015432	4.9042	0.20391	362.59	381.77	1.7489	0.68417	0.78868	145.47	47.091	9.7207	0.0091814
245.51	0.094275	1381.4	0.00072392	163.74	163.81	0.86093	0.84640	1.2775	749.25	-0.26441	387.35	0.10464	0.015426	4.9128	0.20355	362.61	381.80	1.7488	0.68427	0.78882	145.48	47.064	9.7222	0.0091847
245.55	0.094450	1381.2	0.00072398	163.79	163.86	0.86114	0.84644	1.2775	749.07	-0.26431	387.13	0.10463	0.015420	4.9213	0.20320	362.63	381.82	1.7488	0.68438	0.78895	145.48	47.036	9.7236	0.0091879
245.59	0.094625	1381.1	0.00072405	163.84	163.91	0.86135	0.84649	1.2776	748.88	-0.26420	386.90	0.10461	0.015414	4.9299	0.20284	362.66	381.85	1.7488	0.68448	0.78909	145.49	47.009	9.7251	0.0091912
245.63	0.094800	1381.0	0.00072411	163.89	163.96	0.86156	0.84653	1.2777	748.70	-0.26409	386.68	0.10459	0.015408	4.9385	0.20249	362.68	381.87	1.7487	0.68459	0.78923	145.49	46.981	9.7265	0.0091945
245.67	0.094975	1380.9	0.00072417	163.94	164.01	0.86176	0.84658	1.2778	748.51	-0.26399	386.46	0.10457	0.015402	4.9471	0.20214	362.70	381.90	1.7487	0.68469	0.78936	145.50	46.954	9.7280	0.0091978
245.71	0.095150	1380.8	0.00072423	163.99	164.06	0.86197	0.84662	1.2778	748.32	-0.26388	386.23	0.10455	0.015396	4.9557	0.20179	362.72	381.92	1.7486	0.68480	0.78950	145.50	46.927	9.7294	0.0092011
245.75	0.095325	1380.7	0.00072430	164.04	164.11	0.86218	0.84666	1.2779	748.14	-0.26378	386.01	0.10453	0.015390	4.9643	0.20144	362.75	381.95	1.7486	0.68490	0.78963	145.51	46.900	9.7309	0.0092043
245.79	0.095500	1380.5	0.00072436	164.09	164.16	0.86238	0.84671	1.2780	747.96	-0.26367	385.79	0.10451	0.015384	4.9728	0.20109	362.77	381.97	1.7485	0.68501	0.78977	145.51	46.873	9.7323	0.0092076
245.83	0.095675	1380.4	0.00072442	164.14	164.21	0.86259	0.84675	1.2781	747.77	-0.26357	385.57	0.10449	0.015379	4.9814	0.20075	362.79	382.00	1.7485	0.68511	0.78990	145.52	46.846	9.7337	0.0092108
245.87	0.095850	1380.3	0.00072448	164.19	164.26	0.86279	0.84680	1.2782	747.59	-0.26346	385.35	0.10448	0.015373	4.9900	0.20040	362.82	382.02	1.7485	0.68521	0.79004	145.52	46.819	9.7352	0.0092141
245.91	0.096025	1380.2	0.00072454	164.24	164.31	0.86300	0.84684	1.2782	747.40	-0.26336	385.13	0.10446	0.015367	4.9986	0.20006	362.84	382.05	1.7484	0.68532	0.79017	145.53	46.792	9.7366	0.0092173
245.95	0.096200	1380.1	0.00072461	164.29	164.36	0.86320	0.84689	1.2783	747.22	-0.26325	384.91	0.10444	0.015361	5.0072	0.19971	362.86	382.07	1.7484	0.68542	0.79031	145.53	46.765	9.7381	0.0092206
245.99	0.096375	1379.9	0.00072467	164.35	164.42	0.86340	0.84693	1.2784	747.04	-0.26315	384.69	0.10442	0.015355	5.0157	0.19937	362.88	382.10	1.7483	0.68552	0.79044	145.54	46.738	9.7395	0.0092238
246.03	0.096550	1379.8	0.00072473	164.40	164.47	0.86361	0.84698	1.2785	746.86	-0.26304	384.47	0.10440	0.015349	5.0243	0.19903	362.91	382.12	1.7483	0.68563	0.79058	145.54	46.712	9.7409	0.0092270
246.07	0.096725	1379.7	0.00072479	164.45	164.52	0.86381	0.84702	1.2785	746.67	-0.26294	384.26	0.10438	0.015343	5.0329	0.19869	362.93	382.15	1.7483	0.68573	0.79071	145.55	46.685	9.7423	0.0092303
246.10	0.096900	1379.6	0.00072485	164.50	164.57	0.86401	0.84706	1.2786	746.49	-0.26283	384.04	0.10436	0.015338	5.0415	0.19836	362.95	382.17	1.7482	0.68583	0.79084	145.55	46.659	9.7438	0.0092335
246.14	0.097075	1379.5	0.00072491	164.55	164.62	0.86422	0.84711	1.2787	746.31	-0.26273	383.82	0.10435	0.015332	5.0500	0.19802	362.97	382.20	1.7482	0.68594	0.79098	145.56	46.632	9.7452	0.0092367
246.18	0.097250	1379.4	0.00072498	164.60	164.67	0.86442	0.84715	1.2788	746.13	-0.26262	383.61	0.10433	0.015326	5.0586	0.19768	363.00	382.22	1.7481	0.68604	0.79111	145.56	46.606	9.7466	0.0092399
246.22	0.097425	1379.2	0.00072504	164.64	164.72	0.86462	0.84720	1.2789	745.95	-0.26252	383.39	0.10431	0.015320	5.0672	0.19735	363.02	382.24	1.7481	0.68614	0.79124	145.57	46.579	9.7480	0.0092431
246.26	0.097600	1379.1	0.00072510	164.69	164.77	0.86482	0.84724	1.2789	745.76	-0.26241	383.17	0.10429	0.015314	5.0758	0.19701	363.04	382.27	1.7480	0.68624	0.79138	145.57	46.553	9.7494	0.0092463
246.30	0.097775	1379.0	0.00072516	164.74	164.82	0.86503	0.84728	1.2790	745.58	-0.26231	382.96	0.10427	0.015309	5.0843	0.19668	363.06	382.29	1.7480	0.68635	0.79151	145.57	46.527	9.7509	0.0092495
246.34	0.097950	1378.9	0.00072522	164.79	164.86	0.86523	0.84733	1.2791	745.40	-0.26220	382.75	0.10425	0.015303	5.0929	0.19635	363.08	382.32	1.7480	0.68645	0.79164	145.58	46.501	9.7523	0.0092527
246.38	0.098125	1378.8	0.00072528	164.84	164.91	0.86543	0.84737	1.2792	745.22	-0.26210	382.53	0.10424	0.015297	5.1015	0.19602	363.11	382.34	1.7479	0.68655	0.79178	145.58	46.474	9.7537	0.0092559
246.42	0.098300	1378.7	0.00072534	164.89	164.96	0.86563	0.84741	1.2792	745.04	-0.26200	382.32	0.10422	0.015291	5.1100	0.19569	363.13	382.37	1.7479	0.68665	0.79191	145.59	46.448	9.7551	0.0092591
246.45	0.098475	1378.5	0.00072540	164.94	165.01	0.86583	0.84746	1.2793	744.86	-0.26189	382.10	0.10420	0.015286	5.1186	0.19537	363.15	382.39	1.7478	0.68675	0.79204	145.59	46.422	9.7565	0.0092623
246.49	0.098650	1378.4	0.00072546	164.99	165.06	0.86603	0.84750	1.2794	744.68	-0.26179	381.89	0.10418	0.015280	5.1272	0.19504	363.17	382.41	1.7478	0.68686	0.79218	145.60	46.396	9.7579	0.0092655
246.53	0.098825	1378.3	0.00072552	165.04	165.11	0.86623	0.84755	1.2795	744.50	-0.26168	381.68	0.10416	0.015274	5.1357	0.19471	363.20	382.44	1.7478	0.68696	0.79231	145.60	46.371	9.7593	0.0092687
246.57	0.099000	1378.2	0.00072559	165.09	165.16	0.86643	0.84759	1.2795	744.32	-0.26158	381.47	0.10414	0.015269	5.1443	0.19439	363.22	382.46	1.7477	0.68706	0.79244	145.61	46.345	9.7607	0.0092718
246.61	0.099175	1378.1	0.00072565	165.14	165.21	0.86663	0.84763	1.2796	744.15	-0.26148	381.26	0.10413	0.015263	5.1529	0.19407	363.24	382.49	1.7477	0.68716	0.79257	145.61	46.319	9.7621	0.0092750
246.65	0.099350	1378.0	0.00072571	165.19	165.26	0.86683	0.84768	1.2797	743.97	-0.26137	381.05	0.10411	0.015257	5.1614	0.19374	363.26	382.51	1.7476	0.68726	0.79270	145.62	46.293	9.7635	0.0092782
246.69	0.099525	1377.9	0.00072577	165.24	165.31	0.86702	0.84772	1.2798	743.79	-0.26127	380.84	0.10409	0.015251	5.1700	0.19342	363.28	382.53	1.7476	0.68736	0.79284	145.62	46.268	9.7649	0.0092813
246.72	0.099700	1377.7	0.00072583	165.29	165.36	0.86722	0.84776	1.2798	743.61	-0.26116	380.63	0.10407	0.015246	5.1786	0.19310	363.31	382.56	1.7476	0.68746	0.79297	145.62	46.242	9.7663	0.0092845
246.76	0.099875	1377.6	0.00072589	165.33	165.41	0.86742	0.84780	1.2799	743.43	-0.26106	380.42	0.10405	0.015240	5.1871	0.19278	363.33	382.58	1.7475	0.68757	0.79310	145.63	46.217	9.7677	0.0092876
246.80	0.10005	1377.5	0.00072595	165.38	165.46	0.86762	0.84785	1.2800	743.25	-0.26096	380.21	0.10404	0.015234	5.1957	0.19247	363.35	382.61	1.7475	0.68767	0.79323	145.63	46.191	9.7691	0.0092908
246.84	0.10022	1377.4	0.00072601	165.43	165.50	0.86782	0.84789	1.2801	743.08	-0.26085	380.00	0.10402	0.015229	5.2043	0.19215	363.37	382.63	1.7474	0.68777	0.79336	145.64	46.166	9.7704	0.0092939
246.88	0.10040	1377.3	0.00072607	165.48	165.55	0.86801	0.84793	1.2801	742.90	-0.26075	379.79	0.10400	0.015223	5.2128	0.19183	363.39	382.65	1.7474	0.68787	0.79349	145.64	46.140	9.7718	0.0092970
246.91	0.10057	1377.2	0.00072613	165.53	165.60	0.86821	0.84798	1.2802	742.72	-0.26065	379.58	0.10398	0.015217	5.2214	0.19152	363.42	382.68	1.7474	0.68797	0.79362	145.65	46.115	9.7732	0.0093002
246.95	0.10075	1377.1	0.00072619	165.58	165.65	0.86841	0.84802	1.2803	742.55	-0.26055	379.38	0.10396	0.015212	5.2299	0.19121	363.44	382.70	1.7473	0.68807	0.79376	145.65	46.090	9.7746	0.0093033
246.99	0.10093	1376.9	0.00072625	165.63	165.70	0.86860	0.84806	1.2804	742.37	-0.26044	379.17	0.10395	0.015206	5.2385	0.19089	363.46	382.72	1.7473	0.68817	0.79389	145.66	46.065	9.7760	0.0093064
247.03	0.10110	1376.8	0.00072631	165.67	165.75	0.86880	0.84811	1.2804	742.19	-0.26034	378.96	0.10393	0.015201	5.2471	0.19058	363.48	382.75	1.7472	0.68827	0.79402	145.66	46.040	9.7773	0.0093096
247.07	0.10127	1376.7	0.00072637	165.72	165.80	0.86899	0.84815	1.2805	742.02	-0.26024	378.76	0.10391	0.015195	5.2556	0.19027	363.50	382.77	1.7472	0.68837	0.79415	145.66	46.015	9.7787	0.0093127
247.10	0.10145	1376.6	0.00072643	165.77	165.84	0.86919	0.84819	1.2806	741.84	-0.26013	378.55	0.10389	0.015189	5.2642	0.18996	363.52	382.80	1.7472	0.68847	0.79428	145.67	45.990	9.7801	0.0093158
247.14	0.10163	1376.5	0.00072649	165.82	165.89	0.86938	0.84823	1.2807	741.67	-0.26003	378.35	0.10388	0.015184	5.2727	0.18966	363.55	382.82	1.7471	0.68857	0.79441	145.67	45.965	9.7815	0.0093189
247.18	0.10180	1376.4	0.00072655	165.87	165.94	0.86958	0.84828	1.2807	741.49	-0.25993	378.14	0.10386	0.015178	5.2813	0.18935	363.57	382.84	1.7471	0.68867	0.79454	145.68	45.940	9.7828	0.0093220
247.22	0.10197	1376.3	0.00072661	165.92	165.99	0.86977	0.84832	1.2808	741.32	-0.25983	377.94	0.10384	0.015173	5.2898	0.18904	363.59	382.87	1.7470	0.68877	0.79467	145.68	45.915	9.7842	0.0093251
247.25	0.10215	1376.1	0.00072667	165.96	166.04	0.86997	0.84836	1.2809	741.14	-0.25972	377.74	0.10382	0.015167	5.2984	0.18874	363.61	382.89	1.7470	0.68887	0.79480	145.69	45.890	9.7856	0.0093282
247.29	0.10233	1376.0	0.00072673	166.01	166.09	0.87016	0.84840	1.2810	740.97	-0.25962	377.53	0.10380	0.015162	5.3069	0.18843	363.63	382.91	1.7470	0.68896	0.79493	145.69	45.865	9.7869	0.0093313
247.33	0.10250	1375.9	0.00072679	166.06	166.13	0.87035	0.84845	1.2810	740.80	-0.25952	377.33	0.10379	0.015156	5.3155	0.18813	363.65	382.94	1.7469	0.68906	0.79506	145.69	45.841	9.7883	0.0093344
247.37	0.10267	1375.8	0.00072685	166.11	166.18	0.87055	0.84849	1.2811	740.62	-0.25942	377.13	0.10377	0.015150	5.3241	0.18783	363.67	382.96	1.7469	0.68916	0.79519	145.70	45.816	9.7896	0.0093375
247.40	0.10285	1375.7	0.00072691	166.15	166.23	0.87074	0.84853	1.2812	740.45	-0.25931	376.93	0.10375	0.015145	5.3326	0.18753	363.70	382.98	1.7469	0.68926	0.79532	145.70	45.792	9.7910	0.0093405
247.44	0.10303	1375.6	0.00072696	166.20	166.28	0.87093	0.84857	1.2813	740.27	-0.25921	376.72	0.10373	0.015139	5.3412	0.18723	363.72	383.01	1.7468	0.68936	0.79545	145.71	45.767	9.7924	0.0093436
247.48	0.10320	1375.5	0.00072702	166.25	166.33	0.87113	0.84862	1.2813	740.10	-0.25911	376.52	0.10372	0.015134	5.3497	0.18693	363.74	383.03	1.7468	0.68946	0.79558	145.71	45.743	9.7937	0.0093467
247.51	0.10338	1375.4	0.00072708	166.30	166.37	0.87132	0.84866	1.2814	739.93	-0.25901	376.32	0.10370	0.015128	5.3583	0.18663	363.76	383.05	1.7467	0.68956	0.79570	145.72	45.718	9.7951	0.0093497
247.55	0.10355	1375.2	0.00072714	166.35	166.42	0.87151	0.84870	1.2815	739.76	-0.25891	376.12	0.10368	0.015123	5.3668	0.18633	363.78	383.08	1.7467	0.68965	0.79583	145.72	45.694	9.7964	0.0093528
247.59	0.10372	1375.1	0.00072720	166.39	166.47	0.87170	0.84874	1.2816	739.58	-0.25880	375.92	0.10366	0.015117	5.3754	0.18603	363.80	383.10	1.7467	0.68975	0.79596	145.72	45.670	9.7978	0.0093559
247.63	0.10390	1375.0	0.00072726	166.44	166.52	0.87189	0.84878	1.2816	739.41	-0.25870	375.72	0.10365	0.015112	5.3839	0.18574	363.82	383.12	1.7466	0.68985	0.79609	145.73	45.646	9.7991	0.0093589
247.66	0.10408	1374.9	0.00072732	166.49	166.56	0.87209	0.84883	1.2817	739.24	-0.25860	375.53	0.10363	0.015106	5.3924	0.18544	363.85	383.15	1.7466	0.68995	0.79622	145.73	45.621	9.8004	0.0093620
247.70	0.10425	1374.8	0.00072738	166.53	166.61	0.87228	0.84887	1.2818	739.07	-0.25850	375.33	0.10361	0.015101	5.4010	0.18515	363.87	383.17	1.7465	0.69005	0.79635	145.74	45.597	9.8018	0.0093650
247.74	0.10442	1374.7	0.00072744	166.58	166.66	0.87247	0.84891	1.2819	738.90	-0.25840	375.13	0.10360	0.015095	5.4095	0.18486	363.89	383.19	1.7465	0.69014	0.79648	145.74	45.573	9.8031	0.0093681
247.77	0.10460	1374.6	0.00072749	166.63	166.71	0.87266	0.84895	1.2819	738.72	-0.25830	374.93	0.10358	0.015090	5.4181	0.18457	363.91	383.21	1.7465	0.69024	0.79660	145.75	45.549	9.8045	0.0093711
247.81	0.10478	1374.5	0.00072755	166.68	166.75	0.87285	0.84899	1.2820	738.55	-0.25819	374.73	0.10356	0.015085	5.4266	0.18428	363.93	383.24	1.7464	0.69034	0.79673	145.75	45.525	9.8058	0.0093742
247.85	0.10495	1374.4	0.00072761	166.72	166.80	0.87304	0.84903	1.2821	738.38	-0.25809	374.54	0.10354	0.015079	5.4352	0.18399	363.95	383.26	1.7464	0.69044	0.79686	145.75	45.501	9.8071	0.0093772
247.88	0.10512	1374.2	0.00072767	166.77	166.85	0.87323	0.84908	1.2822	738.21	-0.25799	374.34	0.10353	0.015074	5.4437	0.18370	363.97	383.28	1.7464	0.69053	0.79699	145.76	45.478	9.8085	0.0093802
247.92	0.10530	1374.1	0.00072773	166.82	166.89	0.87342	0.84912	1.2822	738.04	-0.25789	374.14	0.10351	0.015068	5.4523	0.18341	363.99	383.31	1.7463	0.69063	0.79712	145.76	45.454	9.8098	0.0093832
247.96	0.10547	1374.0	0.00072779	166.86	166.94	0.87360	0.84916	1.2823	737.87	-0.25779	373.95	0.10349	0.015063	5.4608	0.18312	364.01	383.33	1.7463	0.69073	0.79724	145.77	45.430	9.8111	0.0093863
247.99	0.10565	1373.9	0.00072785	166.91	166.99	0.87379	0.84920	1.2824	737.70	-0.25769	373.75	0.10347	0.015057	5.4693	0.18284	364.03	383.35	1.7462	0.69083	0.79737	145.77	45.406	9.8125	0.0093893
248.03	0.10583	1373.8	0.00072790	166.96	167.03	0.87398	0.84924	1.2825	737.53	-0.25759	373.56	0.10346	0.015052	5.4779	0.18255	364.06	383.37	1.7462	0.69092	0.79750	145.77	45.383	9.8138	0.0093923
248.07	0.10600	1373.7	0.00072796	167.00	167.08	0.87417	0.84928	1.2825	737.36	-0.25749	373.36	0.10344	0.015047	5.4864	0.18227	364.08	383.40	1.7462	0.69102	0.79762	145.78	45.359	9.8151	0.0093953
